CTI3   

KEYWORD "TARGET_INSTRUMENT"
TARGET_INSTRUMENT "ColorVision Spyder2"
KEYWORD "LUMINANCE_XYZ_CDM2"
LUMINANCE_XYZ_CDM2 "127.256485 132.860552 205.846941"

BEGIN_ARGYLL_COLPROF_ARGS
-v -qh -aS -C "No copyright. Created with dispcalGUI 2.1.0.0 and Argyll CMS 1.6.3" -M "M101NWT2 R1"
END_ARGYLL_COLPROF_ARGS

KEYWORD "DARK_REGION_EMPHASIS"
DARK_REGION_EMPHASIS "1.6"
KEYWORD "SMOOTH_B2A_SIZE"
SMOOTH_B2A_SIZE "33"
KEYWORD "DISPLAY_TYPE_BASE_ID"
DISPLAY_TYPE_BASE_ID "1"
KEYWORD "COLOR_REP"
COLOR_REP "RGB_XYZ"
KEYWORD "NORMALIZED_TO_Y_100"
NORMALIZED_TO_Y_100 "YES"
ORIGINATOR "Argyll dispread"
KEYWORD "USE_BLACK_POINT_COMPENSATION"
USE_BLACK_POINT_COMPENSATION "YES"
CREATED "Thu May 29 19:40:00 2014"
KEYWORD "DISPLAY_TYPE_REFRESH"
DISPLAY_TYPE_REFRESH "NO"
KEYWORD "COMP_GREY_STEPS"
COMP_GREY_STEPS "121"
KEYWORD "VIDEO_LUT_CALIBRATION_POSSIBLE"
VIDEO_LUT_CALIBRATION_POSSIBLE "YES"
KEYWORD "SINGLE_DIM_STEPS"
SINGLE_DIM_STEPS "41"
DESCRIPTOR "Argyll Calibration Target chart information 3"
KEYWORD "DEVICE_CLASS"
DEVICE_CLASS "DISPLAY"
KEYWORD "SMOOTH_B2A"
SMOOTH_B2A "YES"
KEYWORD "INSTRUMENT_TYPE_SPECTRAL"
INSTRUMENT_TYPE_SPECTRAL "NO"

NUMBER_OF_FIELDS 7
BEGIN_DATA_FORMAT
SAMPLE_ID RGB_R RGB_G RGB_B XYZ_X XYZ_Y XYZ_Z
END_DATA_FORMAT

NUMBER_OF_SETS 2527
BEGIN_DATA
1 100.0000 100.0000 100.0000 95.78200 100.0000 154.9350
2 59.58860 62.77990 0.000000 24.91600 29.92350 14.57490
3 86.39380 81.42560 0.000000 48.91820 56.22150 23.11810
4 100.0000 84.73460 43.88510 63.49960 67.10720 42.01720
5 0.000000 74.04640 30.56130 23.20730 35.84890 22.46090
6 0.000000 77.84510 51.33410 28.43510 42.15070 41.10140
7 0.000000 74.24170 79.04570 35.24520 43.80980 84.31390
8 44.71400 73.80550 83.15280 41.29160 46.41100 95.01700
9 94.66020 94.66020 94.66020 85.66730 89.19860 138.4200
10 96.40520 96.40520 96.40520 89.09470 92.62470 144.2740
11 10.68380 10.68380 10.68380 2.769520 2.418200 4.547830
12 0.000000 0.000000 3.554500 2.310350 1.774300 3.924600
13 9.729270 9.729270 9.729270 2.642810 2.279910 4.315500
14 3.554500 0.000000 0.000000 2.310940 1.773740 3.926410
15 2.336450 0.000000 0.000000 2.312250 1.774590 3.927100
16 4.807690 0.000000 0.000000 2.312440 1.774050 3.924490
17 6.097560 0.000000 0.000000 2.312650 1.774210 3.925490
18 10.20410 0.000000 0.000000 2.384360 1.812510 3.948690
19 11.65800 0.000000 0.000000 2.420160 1.830920 3.956490
20 16.30430 0.000000 0.000000 2.646540 1.953420 4.021150
21 17.95580 0.000000 0.000000 2.734220 2.002410 4.045770
22 19.66290 0.000000 0.000000 2.892450 2.087000 4.092390
23 21.42860 0.000000 0.000000 3.029100 2.162270 4.132610
24 23.25580 0.000000 0.000000 3.252780 2.283600 4.195580
25 25.14790 0.000000 0.000000 3.452960 2.394500 4.253290
26 27.10840 0.000000 0.000000 3.710950 2.537960 4.321170
27 29.14110 0.000000 0.000000 3.988390 2.691950 4.398670
28 29.67840 12.23110 0.000000 4.415430 3.388740 4.677930
29 31.25000 0.000000 0.000000 4.333970 2.883560 4.492810
30 35.71430 0.000000 0.000000 5.071830 3.293740 4.693270
31 38.07950 0.000000 0.000000 5.527610 3.546160 4.813520
32 40.54050 0.000000 0.000000 6.095160 3.860550 4.963420
33 43.10340 0.000000 0.000000 6.705770 4.200020 5.118730
34 45.77460 0.000000 0.000000 7.453430 4.617790 5.305970
35 48.56120 0.000000 0.000000 7.726460 4.857850 5.475410
36 51.47060 0.000000 0.000000 8.406580 5.251960 5.666320
37 54.51130 0.000000 0.000000 9.321870 5.787660 5.912700
38 57.69230 0.000000 0.000000 10.35980 6.396680 6.190010
39 61.02360 0.000000 0.000000 11.68750 7.179660 6.534190
40 64.51610 0.000000 0.000000 13.26010 8.110270 6.917680
41 68.18180 0.000000 0.000000 14.88630 9.069770 7.309420
42 72.03390 0.000000 0.000000 17.31230 10.51230 7.857900
43 76.08700 0.000000 0.000000 19.74730 11.95770 8.369200
44 80.35710 0.000000 0.000000 22.12260 13.36630 8.837860
45 84.86240 0.000000 0.000000 24.85710 14.99650 9.308490
46 89.62260 0.000000 0.000000 27.98230 16.84840 9.803900
47 94.66020 0.000000 0.000000 31.53250 18.97750 10.22260
48 100.0000 0.000000 52.30520 40.48820 24.03140 36.62400
49 100.0000 29.70840 91.79290 58.12430 37.97620 114.4320
50 14.70590 0.000000 0.000000 2.560220 1.907310 3.994510
51 8.793970 0.000000 0.000000 2.309610 1.775570 3.922430
52 0.000000 1.152070 0.000000 2.310560 1.775360 3.925560
53 0.000000 2.336450 0.000000 2.310070 1.775770 3.923660
54 0.000000 3.554500 0.000000 2.377640 1.894220 3.975480
55 0.000000 4.807690 0.000000 2.410200 1.954800 3.998700
56 0.000000 6.097560 0.000000 2.442500 2.014540 4.022950
57 0.000000 7.425740 0.000000 2.492640 2.104550 4.059510
58 0.000000 13.15790 0.000000 2.737810 2.550510 4.232480
59 0.000000 14.70590 0.000000 2.831470 2.717380 4.302870
60 0.000000 16.30430 0.000000 2.961460 2.954050 4.395940
61 0.000000 17.95580 0.000000 3.105480 3.207910 4.497420
62 0.000000 19.66290 0.000000 3.293980 3.549160 4.627530
63 0.000000 21.42860 0.000000 3.454890 3.839700 4.738820
64 0.000000 23.25580 0.000000 3.718160 4.309940 4.922060
65 0.000000 25.14790 0.000000 3.947610 4.725180 5.078140
66 0.000000 27.10840 0.000000 4.241560 5.250790 5.281570
67 0.000000 29.14110 0.000000 4.553000 5.810220 5.494780
68 0.000000 31.25000 0.000000 4.952170 6.533260 5.758880
69 0.000000 33.43950 0.000000 5.408990 7.345400 6.069460
70 0.000000 35.71430 0.000000 6.211070 8.368260 6.486490
71 0.000000 38.07950 0.000000 6.481240 9.262430 6.781550
72 0.000000 40.54050 0.000000 7.113670 10.39420 7.199580
73 0.000000 43.10340 0.000000 8.203400 11.82180 7.765980
74 0.000000 45.77460 0.000000 8.756950 13.31750 8.259680
75 0.000000 48.56120 0.000000 10.01670 14.94930 8.899900
76 0.000000 51.47060 0.000000 11.04340 16.72070 9.528540
77 0.000000 54.51130 0.000000 11.80250 18.73630 10.17140
78 0.000000 57.69230 0.000000 13.55260 21.03320 11.02330
79 0.000000 61.02360 0.000000 15.14790 23.76340 11.94910
80 0.000000 64.51610 0.000000 16.73640 26.46010 12.85720
81 0.000000 68.18180 0.000000 17.94580 29.60440 13.76260
82 0.000000 72.03390 0.000000 19.92220 33.06160 14.85620
83 0.000000 76.08700 0.000000 22.08280 36.86080 16.00510
84 0.000000 80.35710 0.000000 24.72140 41.47990 17.32090
85 0.000000 84.86240 0.000000 27.70450 46.65130 18.76400
86 0.000000 89.62260 0.000000 31.01250 52.36440 20.17250
87 0.000000 94.66020 0.000000 34.39800 58.13980 21.43000
88 0.000000 100.0000 0.000000 37.43960 63.25460 22.35040
89 19.53840 100.0000 75.72590 50.17560 70.42330 83.80060
90 47.75310 100.0000 80.41030 57.47960 74.60280 95.45110
91 69.38340 55.35300 39.67810 28.06180 28.48750 26.73610
92 49.34890 46.75530 30.69240 16.49700 17.81790 16.98060
93 75.33800 62.56610 33.31320 33.82510 35.49890 25.00250
94 13.15790 0.000000 0.000000 2.480610 1.863020 3.979970
95 7.425740 0.000000 0.000000 2.308760 1.774130 3.922070
96 0.000000 0.000000 6.097560 2.307220 1.773940 3.923030
97 0.000000 0.000000 7.425740 2.307320 1.773910 3.918250
98 0.000000 0.000000 8.793970 2.306680 1.774940 3.921170
99 9.259260 9.259260 9.259260 2.574570 2.211500 4.100710
100 0.000000 0.000000 11.65800 2.384050 1.812610 4.308290
101 0.000000 0.000000 16.30430 2.570390 1.911150 5.266330
102 0.000000 0.000000 19.66290 2.725230 1.992260 6.051700
103 0.000000 0.000000 21.42860 2.823140 2.043730 6.552030
104 0.000000 0.000000 23.25580 2.960060 2.116260 7.260040
105 0.000000 0.000000 25.14790 3.110480 2.195070 8.027210
106 0.000000 0.000000 27.10840 3.270510 2.276800 8.836350
107 0.000000 0.000000 29.14110 3.484540 2.389100 9.928260
108 0.000000 8.866650 33.58200 4.176300 3.055980 12.44370
109 0.000000 0.000000 33.43950 3.946290 2.635140 12.29310
110 0.000000 0.000000 35.71430 4.402190 2.811370 13.86930
111 0.000000 0.000000 38.07950 4.719720 2.980600 15.48860
112 0.000000 0.000000 40.54050 5.056210 3.162130 17.20010
113 0.000000 0.000000 43.10340 5.534370 3.420330 19.63220
114 0.000000 0.000000 45.77460 6.095610 3.723820 22.45970
115 0.000000 0.000000 48.56120 6.687130 4.045820 25.45470
116 0.000000 0.000000 51.47060 7.309820 4.391480 28.60200
117 0.000000 0.000000 54.51130 7.970840 4.756230 31.93180
118 0.000000 0.000000 57.69230 8.783660 5.211810 36.02880
119 0.000000 0.000000 61.02360 9.853180 5.813760 41.35410
120 0.000000 0.000000 64.51610 10.88490 6.411560 46.57470
121 0.000000 0.000000 68.18180 12.06530 7.100790 52.47810
122 0.000000 0.000000 72.03390 13.45730 7.925970 59.41400
123 0.000000 0.000000 76.08700 14.95640 8.835920 66.87840
124 0.000000 0.000000 80.35710 16.81890 9.993380 76.07370
125 0.000000 0.000000 84.86240 19.05800 11.44680 87.13430
126 0.000000 0.000000 89.62260 21.60950 13.18750 99.53730
127 65.17880 30.38920 100.0000 41.39200 30.03650 134.7030
128 81.62780 72.29990 100.0000 66.23970 63.25640 146.1730
129 83.58540 81.29800 100.0000 72.71170 73.27600 149.0930
130 0.000000 0.000000 10.20410 2.343280 1.796940 4.111440
131 0.000000 0.000000 1.152070 2.307190 1.775900 3.922660
132 0.000000 0.000000 2.336450 2.307830 1.775350 3.920230
133 0.000000 8.793970 0.000000 2.537320 2.194540 4.084570
134 0.000000 11.65800 0.000000 2.646130 2.391330 4.165190
135 0.764526 0.764526 0.764526 2.307370 1.776570 3.916690
136 1.152070 1.152070 1.152070 2.308520 1.776190 3.918830
137 1.543210 1.543210 1.543210 2.309790 1.775380 3.924790
138 1.937980 1.937980 1.937980 2.309450 1.775900 3.923570
139 2.336450 2.336450 2.336450 2.309100 1.776090 3.924760
140 2.738650 2.738650 2.738650 2.340850 1.836040 3.946290
141 3.144650 3.144650 3.144650 2.340570 1.835120 3.946970
142 3.554500 3.554500 3.554500 2.373360 1.895710 3.970420
143 3.968250 3.968250 3.968250 2.373580 1.895670 3.971320
144 4.385960 4.385960 4.385960 2.404510 1.954100 3.991540
145 4.807690 4.807690 4.807690 2.404560 1.955110 3.994370
146 5.233490 5.233490 5.233490 2.408470 1.954810 4.000500
147 5.663430 5.663430 5.663430 2.440260 2.014550 4.021330
148 6.097560 6.097560 6.097560 2.439960 2.014160 4.017090
149 7.787810 6.114450 0.000000 2.441920 2.015300 4.020500
150 6.535950 6.535950 6.535950 2.467960 2.059420 4.042590
151 6.978650 6.978650 6.978650 2.466280 2.058560 4.035470
152 7.425740 7.425740 7.425740 2.490740 2.105790 4.057650
153 7.877280 7.877280 7.877280 2.515060 2.149680 4.071480
154 8.333330 8.333330 8.333330 2.515430 2.150250 4.072520
155 0.000000 12.75010 9.716350 2.745870 2.517320 4.406250
156 8.793970 8.793970 8.793970 2.540910 2.195210 4.093600
157 12.65270 12.65270 12.65270 2.988990 2.645130 4.838680
158 13.15790 13.15790 13.15790 3.054960 2.717880 5.048040
159 13.66840 13.66840 13.66840 3.112770 2.785080 5.073660
160 14.18440 14.18440 14.18440 3.198460 2.871700 5.254220
161 14.70590 14.70590 14.70590 3.283990 2.956420 5.425560
162 15.23300 15.23300 15.23300 3.341580 3.028330 5.452510
163 15.76580 15.76580 15.76580 3.464420 3.175460 5.649830
164 17.95580 17.95580 17.95580 3.849750 3.603760 6.268590
165 20.67880 14.27040 18.19810 3.803200 3.193620 6.276800
166 17.39930 17.39930 17.39930 3.751710 3.505020 6.071640
167 16.84880 16.84880 16.84880 3.715170 3.438500 6.049610
168 16.30430 16.30430 16.30430 3.558770 3.266580 5.829270
169 18.51850 18.51850 18.51850 4.013520 3.781480 6.488700
170 19.08750 19.08750 19.08750 4.116150 3.885770 6.681310
171 19.66290 19.66290 19.66290 4.291750 4.079630 6.924240
172 20.24480 20.24480 20.24480 4.396770 4.183640 7.128090
173 20.83330 20.83330 20.83330 4.583000 4.386360 7.368170
174 21.42860 21.42860 21.42860 4.691130 4.498480 7.577510
175 22.03070 22.03070 22.03070 4.916710 4.728420 8.016340
176 22.63970 22.63970 22.63970 4.999210 4.826920 8.053930
177 23.25580 23.25580 23.25580 5.319930 5.165480 8.544840
178 23.87910 23.87910 23.87910 5.566320 5.414660 9.012620
179 24.50980 24.50980 24.50980 5.650590 5.516920 9.050700
180 25.14790 25.14790 25.14790 5.903840 5.777660 9.528120
181 25.79370 25.79370 25.79370 6.217610 6.127810 10.06280
182 26.44710 26.44710 26.44710 6.394860 6.285860 10.32170
183 27.10840 27.10840 27.10840 6.623210 6.535910 10.62290
184 27.77780 27.77780 27.77780 6.956330 6.903570 11.18960
185 28.45530 28.45530 28.45530 7.140890 7.068870 11.46460
186 29.14110 29.14110 29.14110 7.433400 7.364640 12.00520
187 29.83540 29.83540 29.83540 7.781350 7.760010 12.58650
188 30.53830 30.53830 30.53830 8.140240 8.093780 13.18760
189 31.25000 31.25000 31.25000 8.418240 8.407260 13.54010
190 31.97060 31.97060 31.97060 8.666990 8.729290 13.89980
191 32.70040 32.70040 32.70040 9.072320 9.137740 14.52890
192 33.43950 33.43950 33.43950 9.436180 9.528800 15.15360
193 34.18800 34.18800 34.18800 9.805090 9.921520 15.81060
194 34.94620 34.94620 34.94620 10.24000 10.36040 16.48100
195 36.49240 36.49240 36.49240 11.15710 11.37580 17.88640
196 37.28070 37.28070 37.28070 11.59510 11.83300 18.58270
197 38.07950 38.07950 38.07950 12.03640 12.28970 19.29470
198 38.88890 38.88890 38.88890 12.49340 12.75650 20.00650
199 39.70920 39.70920 39.70920 13.11940 13.43520 20.83510
200 40.54050 40.54050 40.54050 13.59170 13.92740 21.59040
201 41.38320 41.38320 41.38320 14.07370 14.42280 22.34180
202 42.23740 42.23740 42.23740 14.94730 15.39570 23.74920
203 43.10340 43.10340 43.10340 15.48970 15.94550 24.70760
204 43.98150 43.98150 43.98150 16.03740 16.50100 25.70550
205 44.87180 44.87180 44.87180 16.60410 17.08050 26.68690
206 45.77460 45.77460 45.77460 17.66820 18.20350 28.28550
207 46.69030 46.69030 46.69030 18.26550 18.79760 29.34570
208 47.61900 47.61900 47.61900 18.86230 19.41390 30.36810
209 48.56120 48.56120 48.56120 19.90360 20.54710 32.08220
210 49.51690 49.51690 49.51690 20.52590 21.18420 33.16570
211 50.48660 50.48660 50.48660 21.62550 22.39690 34.91680
212 51.47060 51.47060 51.47060 22.30250 23.11020 36.05850
213 52.46910 52.46910 52.46910 23.23740 24.12810 37.31120
214 53.48260 53.48260 53.48260 24.07200 25.06570 38.59710
215 54.51130 54.51130 54.51130 25.18590 26.12570 40.38980
216 55.55560 55.55560 55.55560 26.34990 27.38120 42.24790
217 56.61580 56.61580 56.61580 27.10970 28.11240 43.56300
218 57.69230 57.69230 57.69230 28.49090 29.53380 45.53740
219 58.78550 58.78550 58.78550 29.62730 30.65090 47.46970
220 59.89580 59.89580 59.89580 31.01100 32.11810 49.55840
221 61.02360 61.02360 61.02360 32.67120 33.75080 52.18900
222 62.16930 62.16930 62.16930 32.73960 34.59140 54.24120
223 63.33330 63.33330 63.33330 35.66710 36.71430 56.48340
224 64.51610 64.51610 64.51610 37.11410 38.09020 58.74610
225 65.71820 65.71820 65.71820 37.20510 39.25180 61.16250
226 66.93990 66.93990 66.93990 38.60880 40.66860 63.38790
227 68.18180 68.18180 68.18180 42.04900 43.06900 66.14080
228 69.44440 69.44440 69.44440 41.86360 43.99970 68.25610
229 70.72830 70.72830 70.72830 44.40320 46.56710 71.87110
230 72.03390 72.03390 72.03390 46.07770 48.19910 74.72650
231 73.36180 73.36180 73.36180 47.84590 49.91640 77.04460
232 74.71260 74.71260 74.71260 50.33070 52.55740 80.89670
233 76.08700 76.08700 76.08700 52.17510 54.37930 83.88980
234 77.48540 77.48540 77.48540 54.59690 56.80510 87.71330
235 78.90860 78.90860 78.90860 57.15820 59.62510 91.72440
236 80.35710 80.35710 80.35710 59.02700 61.55690 94.92670
237 81.83180 81.83180 81.83180 61.54280 64.17200 98.97410
238 83.33330 83.33330 83.33330 64.09300 66.87230 102.9700
239 84.86240 84.86240 84.86240 66.91620 69.77220 107.8130
240 86.41980 86.41980 86.41980 69.82350 72.80640 112.7340
241 88.00620 88.00620 88.00620 72.69540 75.84300 116.9830
242 89.62260 89.62260 89.62260 75.80170 79.03160 122.0270
243 91.26980 91.26980 91.26980 78.67610 81.88420 127.0240
244 92.94870 92.94870 92.94870 81.98490 85.32970 132.0920
245 100.0000 0.000000 0.000000 35.38520 21.27060 10.52400
246 100.0000 30.33130 40.36640 40.49630 27.08430 25.87770
247 100.0000 36.86100 60.73120 46.72000 32.33360 51.15860
248 57.17470 32.91670 35.83130 16.12840 13.12330 18.29800
249 100.0000 51.59280 36.87660 45.87820 37.35640 27.06870
250 100.0000 62.08570 53.99390 53.37610 46.53490 46.81120
251 100.0000 73.92820 83.52110 69.70170 63.38540 102.3050
252 18.45280 0.000000 28.09030 3.846630 2.581730 9.443440
253 33.63400 0.000000 76.91750 17.68440 10.45060 70.23260
254 55.80180 0.000000 100.0000 35.80970 23.47280 132.0240
255 100.0000 72.34770 100.0000 78.76030 70.52260 147.6700
256 100.0000 88.18030 100.0000 88.45240 87.48800 152.3750
257 30.86370 44.32790 29.60730 11.46290 14.12140 14.73810
258 46.16550 67.28920 37.05300 24.93500 32.83400 25.69300
259 54.20380 75.80310 70.30300 40.19890 47.07180 70.15570
260 40.13050 76.90040 64.72740 34.86520 44.58000 60.01670
261 51.86870 76.17530 100.0000 55.19150 59.14530 144.1580
262 28.67650 51.39340 55.89270 18.29700 20.94480 39.97490
263 46.51320 49.13390 82.19710 30.48410 27.03620 86.95320
264 46.62140 56.59190 100.0000 43.88200 40.94910 138.2780
265 49.76290 63.66370 100.0000 47.91150 47.04060 140.3220
266 0.000000 14.76470 27.26360 3.792870 3.224790 9.209410
267 0.000000 24.84210 28.25430 5.185180 5.251050 10.63290
268 0.000000 33.65790 39.21840 8.185170 8.858540 18.49350
269 0.000000 47.68460 66.23070 18.80590 19.67750 53.51940
270 0.000000 100.0000 66.69910 46.29510 68.12450 67.07550
271 0.000000 100.0000 84.69860 53.44570 72.53470 102.6520
272 0.000000 66.44920 45.42990 20.85610 30.37520 31.32110
273 53.91640 100.0000 48.51270 49.46240 69.82070 45.68540
274 81.94820 100.0000 56.95950 64.39210 78.84280 58.41770
275 17.75440 21.17080 0.000000 3.878770 4.063340 4.861550
276 22.21850 100.0000 0.000000 38.23390 63.68990 22.54590
277 34.58140 79.94950 0.000000 26.97030 42.25040 17.85340
278 54.37830 100.0000 0.000000 45.44960 67.68760 24.34390
279 58.96200 100.0000 100.0000 72.54460 85.86390 150.7360
280 21.37540 34.61940 57.12550 13.08400 11.64590 38.06150
281 72.21670 38.13530 58.33420 28.14330 21.64650 44.26120
282 100.0000 44.25570 57.49300 47.69890 35.29520 47.50060
283 100.0000 86.92540 56.90980 68.07390 71.59080 57.61840
284 58.99820 30.34930 19.20560 13.87520 11.40670 10.19000
285 77.10690 72.35450 28.33830 39.28000 44.46350 25.13080
286 87.05140 100.0000 30.00470 62.72720 78.09320 34.39380
287 100.0000 100.0000 33.81660 71.98830 83.59270 37.58070
288 100.0000 37.56260 14.23110 39.56320 28.56240 14.17980
289 100.0000 58.67640 20.92210 46.76460 41.06310 20.10800
290 8.572530 93.44410 32.87610 35.13600 57.52850 29.15060
291 0.000000 100.0000 31.67940 38.86960 64.00540 29.56390
292 0.000000 100.0000 43.46700 40.55220 64.90030 38.06600
293 0.000000 100.0000 55.26860 43.02820 66.26070 50.61830
294 0.000000 100.0000 100.0000 63.17020 80.65880 148.4890
295 33.43950 0.000000 0.000000 4.644500 3.057380 4.583920
296 32.67780 23.86240 0.000000 6.053040 5.693160 5.598400
297 49.55090 27.76000 0.000000 10.54830 8.904060 6.989740
298 60.89330 44.57850 0.000000 18.59690 18.13510 10.51040
299 100.0000 47.80130 78.41920 56.18620 41.80950 84.96420
300 100.0000 50.57500 100.0000 69.01200 53.20150 141.9750
301 58.06730 0.000000 39.38340 13.70430 8.019860 18.81790
302 68.28680 0.000000 42.00030 17.66370 10.53610 22.09680
303 76.14310 29.90920 71.85480 32.99250 22.38150 65.00690
304 75.88300 42.39900 100.0000 50.61440 39.10170 138.1020
305 100.0000 62.22080 100.0000 73.71540 61.58090 144.8560
306 0.000000 36.51480 47.34240 10.40740 10.88330 26.66540
307 0.000000 41.60520 67.38990 17.13050 16.26050 54.47990
308 0.000000 59.89360 100.0000 40.22190 40.91600 137.9470
309 0.000000 73.25110 100.0000 46.81670 52.52740 141.6260
310 0.000000 43.30310 28.10090 9.014410 12.45060 13.08360
311 26.91180 71.83130 30.78820 22.52700 34.33060 22.10830
312 0.000000 53.54110 15.13680 12.24530 18.54110 11.18000
313 0.000000 57.36270 62.78450 21.41180 25.40140 50.23230
314 0.000000 79.01880 89.33460 43.03130 52.00550 110.3670
315 0.000000 85.78910 100.0000 54.55070 65.99260 145.3790
316 0.000000 8.190810 22.21610 3.095340 2.453420 7.053230
317 0.000000 0.000000 31.25000 3.714050 2.508060 11.09220
318 100.0000 30.77160 31.44990 39.32260 26.51890 19.61530
319 38.38340 55.49440 0.000000 15.56050 21.28140 11.30310
320 53.63730 74.39460 0.000000 28.58320 39.27350 17.37910
321 100.0000 90.06410 0.000000 63.86600 71.71870 26.70830
322 100.0000 100.0000 0.000000 70.29940 82.70990 28.88360
323 20.10570 0.000000 14.51720 3.131510 2.210220 5.163930
324 34.18670 0.000000 20.15910 5.203590 3.348910 6.933430
325 76.20570 0.000000 23.95240 20.60050 12.41160 12.20480
326 100.0000 0.000000 63.11970 43.58240 25.80580 52.32100
327 100.0000 0.000000 74.38090 47.56710 28.17290 72.36580
328 100.0000 0.000000 86.57520 53.16770 31.81200 100.2640
329 100.0000 0.000000 100.0000 60.86000 38.59320 136.5970
330 27.86730 0.000000 56.29060 9.872340 5.871990 35.23270
331 75.26670 0.000000 57.92070 25.57020 15.08580 41.57340
332 80.96430 17.35330 100.0000 48.53510 32.16710 135.4480
333 0.000000 0.000000 13.15790 2.457470 1.853660 4.687010
334 11.16840 11.16840 11.16840 2.803660 2.438160 4.557710
335 16.00280 14.82290 0.000000 3.134500 2.877480 4.380490
336 77.75120 46.70550 0.000000 27.70820 24.53230 13.02270
337 100.0000 70.27510 29.07490 52.79620 50.86160 26.83240
338 100.0000 100.0000 47.71350 74.39340 84.87970 49.81770
339 100.0000 100.0000 60.00310 77.30450 86.51520 64.58650
340 100.0000 100.0000 69.81430 80.39370 88.32350 80.25440
341 0.000000 27.94380 73.93370 16.32060 12.15330 64.16300
342 0.000000 36.39800 78.50090 19.95370 16.45960 74.28450
343 0.000000 44.40740 100.0000 34.16520 30.18470 134.1900
344 41.85410 100.0000 100.0000 67.35160 82.97190 149.5680
345 63.52210 44.28520 41.41760 22.81860 20.38680 25.07970
346 100.0000 70.61760 45.96450 55.55000 52.64920 39.85420
347 57.94470 100.0000 26.98200 47.78950 68.94610 29.57790
348 75.36650 100.0000 63.16540 62.35920 77.58550 66.77040
349 85.37750 100.0000 80.98140 74.88230 85.11730 101.2340
350 100.0000 100.0000 87.53040 88.35890 93.41020 120.0260
351 10.20410 10.20410 10.20410 2.704850 2.350420 4.336120
352 0.000000 10.20410 0.000000 2.595070 2.293030 4.129970
353 0.000000 0.000000 0.000000 2.309980 1.774760 3.922440
354 0.380518 0.380518 0.380518 2.309430 1.774360 3.924340
355 0.000000 0.000000 4.807690 2.308930 1.774320 3.920930
356 12.15280 12.15280 12.15280 2.933090 2.578320 4.803530
357 28.87760 16.01610 45.21380 8.103960 5.712530 22.69600
358 41.09110 22.78370 80.22280 22.08110 14.70950 78.66330
359 100.0000 38.12380 100.0000 65.08740 46.18430 139.4780
360 29.87790 0.000000 29.29910 5.312140 3.383020 10.73050
361 38.83480 0.000000 27.72450 6.688400 4.154060 10.05520
362 43.10270 0.000000 46.23010 10.44720 6.190920 24.35970
363 59.55970 0.000000 77.21110 25.01410 14.52990 72.94500
364 75.12240 0.000000 87.10380 36.70120 21.97860 97.71960
365 77.02630 0.000000 100.0000 45.38670 29.34400 134.4510
366 0.000000 41.28770 41.37610 10.38220 12.31920 21.15350
367 0.000000 60.11700 52.40750 19.77040 25.77810 36.98200
368 73.58120 78.98290 52.12170 45.11360 52.40250 46.51100
369 100.0000 82.21790 70.16170 69.22410 68.69600 77.52070
370 38.77310 16.44810 0.000000 6.408300 4.886670 5.347170
371 61.84240 27.58740 0.000000 14.18060 11.08320 8.047260
372 100.0000 39.86780 0.000000 39.97920 29.51900 13.65670
373 100.0000 48.99200 0.000000 42.62660 34.26160 15.35250
374 100.0000 57.03910 0.000000 45.68730 39.74820 17.22820
375 100.0000 73.85010 0.000000 53.46970 53.51800 21.70770
376 71.94010 51.12530 0.000000 25.62900 25.10110 13.24840
377 78.38670 100.0000 0.000000 56.57640 74.49470 27.12170
378 88.73600 100.0000 0.000000 62.86940 78.25960 28.14960
379 31.50700 36.26470 0.000000 8.076490 9.563340 7.044510
380 33.87400 40.34420 100.0000 35.33990 29.34950 134.0610
381 37.68030 85.36480 100.0000 57.26180 67.02090 145.9770
382 0.000000 15.99220 15.29430 3.160040 3.012540 5.560140
383 11.65800 11.65800 11.65800 2.831580 2.484950 4.582680
384 0.000000 0.000000 14.70590 2.513370 1.880640 4.979260
385 0.000000 0.000000 17.95580 2.630740 1.940630 5.574760
386 0.000000 25.71580 51.50400 9.091410 7.551300 29.68910
387 43.11550 53.25280 64.74020 24.42680 25.34890 53.97140
388 72.82340 56.81440 69.86340 38.38630 35.08310 66.01500
389 37.83590 19.00070 36.03410 8.387370 6.203900 15.71950
390 47.25170 36.17730 51.57370 16.55880 14.24660 33.30730
391 55.63120 65.38360 58.17140 31.30680 35.40440 47.91180
392 100.0000 78.90910 74.60870 68.93210 66.37050 84.59520
393 25.96470 21.72220 40.54610 7.348760 5.975410 18.43670
394 34.90530 23.96040 45.61280 10.02810 7.838490 23.95010
395 38.97020 26.16060 100.0000 33.16870 24.29450 132.2110
396 48.95940 40.19660 100.0000 38.79270 31.14110 134.8210
397 68.90010 58.96640 100.0000 52.12280 47.03740 140.8060
398 98.18480 98.18480 98.18480 93.17420 97.08300 151.1510
399 100.0000 100.0000 100.0000 95.73930 100.0230 154.8650
400 0.000000 18.92600 60.28220 10.43860 7.275920 40.20590
401 0.000000 25.54950 86.16340 21.39850 14.98320 90.84210
402 0.000000 29.13230 100.0000 30.67450 23.37080 131.6700
403 0.000000 0.000000 94.66020 24.70950 15.53140 114.3900
404 0.000000 0.000000 100.0000 28.26010 19.15570 130.0790
405 0.000000 13.05760 100.0000 28.70940 19.96090 130.3520
406 18.52810 13.86890 100.0000 29.38280 20.33800 130.5570
407 17.80380 66.95560 100.0000 43.89060 46.91800 139.8540
408 65.40480 83.18240 100.0000 63.47600 68.98690 147.3870
409 82.55530 100.0000 100.0000 84.01270 92.98520 153.5720
410 0.000000 20.16000 14.88500 3.536280 3.730280 5.700420
411 33.46220 19.35410 14.63970 5.816660 4.873420 6.312500
412 79.41990 20.24030 15.65960 23.08580 15.14700 10.71870
413 44.66160 0.000000 15.81420 6.959600 4.401600 6.416410
414 100.0000 0.000000 12.81290 35.49880 21.33610 11.14480
415 100.0000 0.000000 32.56600 36.96280 22.11060 18.67100
416 100.0000 0.000000 41.74070 38.24190 22.79160 25.16410
417 88.01140 0.000000 100.0000 51.95310 33.26300 135.5800
418 88.22700 89.58360 100.0000 81.16380 84.53750 151.9780
419 91.65310 100.0000 100.0000 89.90120 96.50450 154.3950
420 35.71430 35.71430 35.71430 10.73720 10.93810 17.20700
421 36.66920 100.0000 39.29140 42.85720 66.17170 35.43140
422 38.80070 100.0000 50.02200 45.47350 67.59780 46.35380
423 69.62270 63.54510 0.000000 31.17210 33.94440 16.04550
424 77.69640 62.86150 0.000000 33.65600 35.32050 16.76020
425 89.20600 68.20240 0.000000 43.33960 44.24250 19.50370
426 72.80650 53.25440 25.48000 27.91770 27.59940 18.33620
427 80.87310 55.35450 60.07070 39.54230 35.18180 51.07520
428 87.30130 61.01540 71.62280 49.56230 44.01210 72.32480
429 65.02710 30.67490 32.49170 17.68380 13.66130 16.71680
430 65.02640 30.25300 78.62280 31.17620 21.08100 78.21570
431 100.0000 42.10710 90.94460 60.41990 42.59530 114.0610
432 100.0000 52.50060 90.74280 63.94890 48.88570 116.2380
433 26.14620 6.898250 0.000000 3.691980 2.724060 4.383440
434 100.0000 29.25650 0.000000 37.56730 25.23210 12.01180
435 100.0000 46.18760 25.30170 42.61420 33.24500 19.03180
436 24.18610 39.19040 0.000000 7.752890 10.25170 7.228890
437 24.01310 43.56560 16.25650 9.277220 12.65400 9.404360
438 32.63680 57.53490 19.63830 15.72590 22.40130 13.66700
439 33.64450 100.0000 59.02060 46.57170 68.22520 56.85060
440 0.000000 48.47130 24.28920 10.82070 15.45170 12.65730
441 0.000000 63.64540 24.76860 17.13110 26.23160 16.53770
442 0.000000 79.42520 41.67570 27.24790 42.54660 31.17150
443 0.000000 80.48680 61.95070 32.76720 46.52180 55.53260
444 19.26750 88.33540 100.0000 56.87370 69.40850 146.2140
445 0.000000 42.62810 49.05570 12.49960 14.10400 29.49720
446 33.09290 58.34800 51.03080 20.51160 25.45520 36.02010
447 41.56590 57.48630 50.12540 21.85480 25.84370 35.48640
448 59.81480 63.31830 56.24770 31.57660 34.38830 45.14020
449 14.35120 10.17410 0.000000 2.816760 2.409080 4.190810
450 17.19290 9.241100 10.33280 2.971150 2.423430 4.396410
451 14.52800 0.000000 47.18640 6.671670 4.005060 23.91690
452 19.81850 0.000000 69.33590 13.20490 7.664280 54.73640
453 89.70800 0.000000 89.42190 46.67040 28.05880 105.1990
454 50.64780 0.000000 29.74060 9.956090 5.964430 12.16950
455 62.06340 0.000000 32.34160 13.48500 8.137210 14.38370
456 61.69990 26.91920 34.14660 15.49190 11.59490 16.86770
457 100.0000 30.04760 50.00500 42.47060 28.10540 36.23190
458 100.0000 47.34390 68.12770 52.00060 38.98590 64.92430
459 100.0000 94.29680 90.99310 86.71470 88.95330 127.5520
460 0.000000 44.31920 14.40290 8.424130 12.49820 8.833680
461 0.000000 64.99710 74.01960 28.16250 33.67930 71.43270
462 0.000000 77.68700 75.29720 35.33950 45.73380 77.48340
463 0.000000 100.0000 76.59770 50.05720 70.37150 85.88130
464 0.000000 87.98900 19.45880 30.39430 50.79940 21.84100
465 0.000000 100.0000 17.60250 37.76710 63.41790 23.97190
466 15.24510 100.0000 60.57720 44.87290 67.29410 58.62650
467 62.21310 100.0000 65.16620 57.25610 74.18270 68.19100
468 82.71390 100.0000 71.33020 69.29160 81.67800 81.08090
469 63.04720 77.15280 72.57510 44.11420 50.31050 75.49400
470 68.71360 78.71430 81.80980 51.77730 56.25920 96.28170
471 0.000000 28.38350 64.03960 12.84060 10.16180 46.59740
472 0.000000 34.68280 86.91260 23.53080 18.22240 94.04270
473 0.000000 36.79770 100.0000 32.50130 26.50540 132.8850
474 32.21310 53.40880 100.0000 39.56210 37.20000 136.7910
475 35.98120 60.51130 100.0000 43.08000 42.54580 138.6440
476 80.29890 62.07860 100.0000 60.35560 53.61000 143.0950
477 35.77100 25.60500 37.23040 9.013150 7.586450 17.00060
478 43.84630 81.24790 37.23550 32.09120 46.10940 29.87720
479 66.79790 89.41030 66.57060 51.82820 64.00310 69.35570
480 70.89360 100.0000 72.39080 62.92230 77.90240 82.05610
481 28.93780 37.24220 54.73390 13.67410 12.99400 35.76120
482 49.26300 37.57050 58.61750 19.25250 16.18820 42.30240
483 90.05560 42.15500 71.66330 44.34030 32.46090 68.36830
484 82.31340 38.58930 53.50470 32.85350 24.58050 38.87460
485 100.0000 50.07310 53.87920 48.55570 38.09530 43.45130
486 100.0000 68.32190 53.09240 56.07320 51.70170 47.05000
487 100.0000 73.13100 63.83550 61.69480 57.94520 64.09150
488 100.0000 85.00380 65.25800 69.35970 70.79870 70.20050
489 54.02530 34.66350 27.29970 14.26370 12.49480 13.15260
490 70.43480 37.74240 28.56150 23.60110 18.60360 16.35040
491 60.38570 60.41630 22.32050 24.93110 28.80430 17.11390
492 63.75120 78.25700 25.40740 35.14410 46.07380 24.06060
493 72.88770 100.0000 31.89180 54.60690 73.23610 33.82060
494 14.77800 18.84770 26.54220 4.393380 4.031120 9.361790
495 11.07910 21.86310 26.55580 4.532600 4.466090 9.511070
496 0.000000 33.03560 58.71110 12.22470 10.90580 39.48610
497 0.000000 36.52020 68.97940 16.24180 14.20690 55.86830
498 0.000000 53.28230 88.54570 30.57270 29.43940 102.1250
499 0.000000 66.90010 87.65650 35.49800 39.54900 103.2120
500 29.24830 84.03440 89.57350 48.21160 58.51220 114.4980
501 25.90270 65.93750 70.89440 28.71250 34.39900 66.59890
502 54.31930 66.66180 75.34170 37.29280 39.57840 77.31540
503 59.84730 67.21240 78.44220 41.06420 42.16240 84.54630
504 8.795940 25.92310 39.46160 6.595630 6.337060 17.80040
505 0.000000 28.46360 47.45160 8.639900 7.803110 25.53950
506 23.37140 35.76690 48.86000 11.27800 11.24490 28.72690
507 30.14940 41.38480 49.68990 13.75350 14.27060 30.82240
508 39.31980 40.20660 49.18260 14.90120 14.54120 30.19990
509 73.67320 45.19980 48.78950 28.83910 24.44750 34.01060
510 81.24430 60.21930 53.25390 39.82300 37.75270 43.47250
511 79.92900 76.51460 56.96210 48.15210 52.18770 52.34050
512 85.88800 78.72910 63.44230 55.05410 57.99580 63.58940
513 46.45290 71.35210 31.90550 26.38990 36.17240 23.49830
514 58.64110 72.01370 37.20010 31.57610 39.47360 28.29240
515 64.45370 78.85040 50.43170 41.02370 49.40040 43.81470
516 43.53800 24.47070 15.05480 8.601950 7.158570 7.293380
517 53.01000 23.45140 17.73390 11.24300 8.514530 8.474010
518 66.81570 21.12570 15.39320 15.82580 10.98780 9.228970
519 81.93290 100.0000 42.24080 61.28780 77.12070 42.36500
520 91.84930 100.0000 41.62740 67.74350 80.96980 42.60210
521 60.19370 62.34210 41.39330 28.01700 31.62990 28.61300
522 83.07960 70.65610 44.98960 43.98030 45.92560 37.43280
523 84.63340 82.73680 50.20500 53.19220 59.66360 46.93230
524 37.78750 72.71610 44.31790 26.93650 37.43310 32.92180
525 42.33850 87.12240 63.03890 41.71430 56.41410 60.91570
526 55.53360 100.0000 72.87110 55.85490 73.72120 80.79550
527 71.24200 100.0000 85.92770 68.95560 81.72580 111.4090
528 72.16040 100.0000 100.0000 77.86460 89.33970 152.3220
529 0.000000 13.35700 46.30940 6.650190 4.604310 23.16780
530 0.000000 11.29230 63.08210 10.71430 6.699060 44.29550
531 0.000000 13.15370 75.48900 15.25350 9.522670 66.43170
532 0.000000 16.21830 87.62250 21.19310 13.61480 94.63340
533 42.42020 68.75220 100.0000 48.65900 50.69900 141.4740
534 54.88510 84.30500 100.0000 61.13990 68.24010 146.8000
535 24.08040 27.81280 23.20320 6.078950 6.434330 9.034460
536 24.87240 27.92080 35.11820 7.367400 7.122080 15.15790
537 44.37320 50.78410 74.26810 27.23070 25.90970 70.73370
538 60.71940 59.39160 73.38580 35.68590 34.70590 71.74820
539 82.78700 65.99300 84.26490 54.22360 49.56770 100.0130
540 14.16070 0.000000 14.47850 2.741740 1.998810 5.054610
541 21.62730 0.000000 22.74150 3.685490 2.502380 7.334470
542 27.84360 0.000000 21.35090 4.314710 2.854030 7.004930
543 82.65460 24.91770 40.92540 27.80670 18.48660 23.98860
544 100.0000 23.05410 54.92840 42.56280 26.93190 40.97540
545 100.0000 27.49500 63.87090 45.79820 29.54950 54.66370
546 22.44410 53.28980 0.000000 12.23700 18.47280 10.15920
547 24.41020 68.83360 0.000000 19.27700 30.64170 14.23270
548 76.88590 90.69570 0.000000 49.43260 63.58650 24.92620
549 87.65950 90.24010 0.000000 55.60310 66.92360 25.88100
550 9.138210 15.64580 0.000000 2.960010 2.909720 4.372580
551 8.255440 11.04750 0.000000 2.622250 2.341540 4.147800
552 0.000000 49.50860 52.61870 15.41650 18.29710 34.45750
553 0.000000 66.54080 67.94360 27.46350 33.85450 60.95410
554 14.29080 69.05560 68.19800 28.31330 36.05590 62.26590
555 23.68080 6.319700 12.04150 3.559090 2.647910 4.896430
556 36.64330 8.465510 21.66690 5.982870 4.039980 7.716440
557 40.39470 0.000000 36.05710 8.096930 4.910650 15.30250
558 52.09690 76.89550 49.16640 33.90310 43.91740 40.12420
559 55.83240 78.53620 77.90800 45.54740 52.30220 86.71950
560 61.86440 91.14550 82.55350 57.02400 68.58120 101.0140
561 65.75050 88.96910 86.30610 59.08260 68.32860 109.4070
562 67.24250 89.03700 100.0000 68.24510 76.31230 149.3310
563 67.08960 94.35450 100.0000 71.60390 82.19770 150.6530
564 13.37280 0.000000 8.180610 2.504650 1.879260 3.980540
565 13.17200 5.332150 0.000000 2.576670 2.043610 4.046210
566 55.05840 52.73190 0.000000 18.91710 21.62540 11.68680
567 62.07800 73.00010 0.000000 31.19490 39.51700 17.73840
568 73.46430 72.60870 0.000000 36.11020 42.49450 19.03160
569 65.29320 86.10270 0.000000 39.74660 54.35440 22.14320
570 67.05690 100.0000 0.000000 51.53070 71.06680 25.69110
571 0.000000 18.64400 26.39130 4.272040 3.846950 9.281080
572 0.000000 19.83650 38.95470 5.843320 4.831700 16.71410
573 13.89200 21.03540 54.32800 9.394320 6.899710 32.76580
574 0.000000 20.69820 72.53380 14.64560 9.924430 60.52480
575 0.000000 22.07580 100.0000 29.58110 21.47130 130.9410
576 51.93220 20.09910 100.0000 35.67880 24.71320 132.4550
577 64.07030 40.51470 100.0000 44.96970 34.67490 136.3320
578 0.000000 37.70640 19.04420 7.068490 9.383190 8.761620
579 0.000000 56.84860 27.21420 13.75360 20.98770 15.67580
580 19.57190 59.86680 28.51220 15.77640 23.70980 17.29420
581 29.85100 84.36510 27.69570 30.03480 47.35130 24.18230
582 58.95640 0.000000 8.904400 10.71310 6.608680 6.294450
583 68.50340 0.000000 15.42020 15.38940 9.350690 8.605520
584 45.70990 0.000000 8.626760 7.459280 4.620340 5.317440
585 52.61190 0.000000 45.57810 12.83250 7.517820 24.19320
586 57.73160 20.25080 71.12890 22.95800 14.54520 61.27420
587 68.37540 24.14610 83.83950 32.72550 21.30850 89.63920
588 79.25290 21.95220 83.34640 38.48880 24.40550 89.55780
589 55.83690 36.30700 58.60970 20.88300 16.66370 42.56370
590 59.10780 47.23270 76.95780 31.84000 26.76890 76.93770
591 80.33780 49.53560 77.00980 42.85400 34.48450 80.11330
592 64.72660 0.000000 21.62820 13.77820 8.374820 9.777640
593 85.36490 0.000000 21.09600 25.56850 15.37830 12.03770
594 100.0000 0.000000 23.52170 36.08990 21.64730 14.18200
595 100.0000 42.17770 42.21720 43.51160 32.09000 29.35860
596 100.0000 62.79710 68.99790 58.16800 49.69570 69.64040
597 100.0000 91.39980 73.92330 76.60190 79.86900 87.41490
598 100.0000 100.0000 79.38320 84.28330 90.70400 99.75680
599 46.67870 40.75790 24.00100 13.36860 13.92170 12.43260
600 50.22830 40.20740 35.65950 15.38000 14.80820 18.83470
601 52.22380 45.11550 58.05440 21.89100 20.16920 42.75360
602 52.68440 53.23580 58.16060 25.04910 25.64220 44.65780
603 55.38660 100.0000 93.66440 65.79480 80.44860 130.7950
604 22.09320 93.29800 53.92060 39.72770 60.02910 48.69500
605 23.25020 100.0000 83.70770 54.22320 72.94260 102.1110
606 22.03040 100.0000 100.0000 63.94040 81.07710 148.6490
607 23.04350 0.000000 43.08920 6.277600 3.886990 20.01720
608 20.48360 9.786060 45.82650 6.878790 4.543300 22.94580
609 20.47490 25.25920 100.0000 30.83730 22.59120 131.4460
610 78.03420 32.25220 100.0000 49.13110 35.12790 136.5710
611 89.76370 38.69110 100.0000 57.75140 42.07450 138.8030
612 90.73120 57.71640 100.0000 65.16220 54.25430 143.0290
613 37.94440 29.22330 29.94340 9.088050 8.276020 12.89010
614 46.25960 30.48640 31.42250 11.55360 9.979660 14.32630
615 51.73720 32.17170 43.35120 15.11030 12.36700 23.54560
616 63.06480 75.35740 56.50780 37.99280 45.48620 49.37790
617 100.0000 76.57820 58.60780 62.13610 60.54490 57.26400
618 72.97470 25.89400 0.000000 19.76530 14.09950 9.235600
619 86.58160 31.77260 0.000000 28.84410 20.68890 11.43590
620 100.0000 65.37800 0.000000 49.27390 46.14390 19.41070
621 29.62280 48.00940 0.000000 11.12640 15.37280 9.146700
622 43.16290 90.08140 0.000000 35.69610 55.12790 21.47090
623 61.87260 92.92770 25.97480 45.03350 62.46750 28.20780
624 76.80560 0.000000 39.64650 22.51850 13.43950 21.37980
625 78.51520 0.000000 50.15190 25.59420 15.16250 32.46760
626 82.52880 16.09320 52.27750 29.09290 18.01880 35.16210
627 51.23190 0.000000 55.43800 14.68140 8.541130 35.19200
628 60.26370 0.000000 64.66550 20.78370 11.97550 49.92290
629 73.82450 0.000000 66.47060 27.34810 16.09900 54.89310
630 77.17060 52.53520 72.78930 40.45010 34.39600 71.54630
631 15.19160 46.44500 0.000000 9.538850 13.67320 8.470390
632 39.73790 100.0000 0.000000 41.21690 65.32910 23.36210
633 40.72330 100.0000 26.41170 42.39120 65.94810 28.10840
634 0.000000 55.68950 35.25260 14.79260 20.88970 20.22000
635 12.18190 58.10690 33.69030 15.15040 22.40310 19.69630
636 0.000000 67.53660 37.41380 19.78850 30.18740 24.49730
637 0.000000 78.96310 69.02030 34.05220 46.21530 66.09670
638 33.20330 85.22200 95.54030 53.35170 63.10970 132.6990
639 51.40510 89.08700 100.0000 63.45070 73.58710 147.9550
640 20.15640 48.89640 36.20160 13.00720 16.68380 19.38730
641 57.21600 49.55470 50.29710 23.37680 22.76120 34.72440
642 66.62500 53.61930 53.43340 28.81360 28.15620 40.06310
643 90.13920 54.80530 56.12340 43.92640 37.51240 46.54740
644 79.37620 42.01480 36.45090 29.09420 23.59480 22.91020
645 84.37250 50.37220 44.26290 35.67050 30.55750 31.52800
646 100.0000 64.28140 76.12290 61.62530 52.71770 83.55810
647 100.0000 72.80650 75.38140 65.63610 60.11000 84.63210
648 100.0000 83.61710 92.04900 80.39910 77.28490 128.3390
649 21.82040 18.25980 22.51870 4.487210 3.990120 7.729310
650 31.18090 14.26190 25.50050 5.627480 4.187400 9.184900
651 29.39210 14.11250 34.83400 6.384470 4.585120 14.24490
652 27.64590 41.56830 39.86090 11.44820 13.12020 20.82120
653 26.66430 45.21090 65.94440 18.68350 18.48800 53.06350
654 26.36260 44.96420 77.19050 22.84420 21.00750 74.02720
655 27.09930 31.12900 55.35290 12.04760 10.31370 35.21370
656 33.96100 29.86520 54.58740 12.69310 10.45730 34.45230
657 41.20970 34.09920 69.49840 19.58990 15.43490 57.83400
658 63.11920 38.71670 82.90770 33.81590 25.08030 88.62090
659 38.52730 17.66430 53.34930 11.69570 7.879250 32.23170
660 43.35730 13.58100 100.0000 32.75980 22.37230 131.4270
661 71.02130 19.66650 100.0000 42.94130 29.12500 134.3440
662 100.0000 22.21630 100.0000 62.07180 40.83500 137.3970
663 45.87910 11.78030 22.92470 8.468450 5.620070 8.771070
664 55.40740 0.000000 23.49830 10.18820 6.253800 9.538690
665 60.39490 18.92560 55.49170 19.12460 12.14590 37.00080
666 46.69020 15.58100 40.82640 10.93710 7.210040 19.48440
667 50.74390 25.63090 44.14720 13.85770 10.25740 23.91730
668 56.17520 26.37610 43.01040 15.49540 11.29610 23.20430
669 24.17930 32.25770 18.95760 6.591380 7.692840 8.180940
670 47.36770 35.59320 18.17410 11.94990 11.61480 9.751080
671 63.97250 37.75030 21.77760 17.75610 15.62770 12.50520
672 65.75020 47.11280 31.12080 23.49330 21.83730 18.62470
673 8.061310 0.000000 12.02880 2.421220 1.832410 4.498980
674 0.000000 10.62230 12.94070 2.769590 2.419520 4.912630
675 6.385040 23.21790 19.53650 4.138700 4.540490 7.057120
676 0.000000 50.14560 77.58750 23.76930 23.48530 74.83940
677 0.000000 56.18700 77.52050 26.18430 27.65390 76.22480
678 32.23540 54.54340 83.07020 29.67760 29.17700 89.17860
679 54.16550 55.97470 83.38410 35.94100 33.39780 91.88630
680 58.78740 100.0000 87.18140 64.67030 78.95020 113.2880
681 0.000000 25.99030 16.62170 4.359260 5.139180 6.525340
682 33.62130 25.13420 12.20020 6.472410 6.098810 6.324910
683 39.74110 30.71130 0.000000 8.488980 8.295500 6.671140
684 58.07790 34.91620 0.000000 13.98540 12.61490 8.573140
685 60.03770 47.11850 11.90880 19.08750 19.34740 11.49840
686 78.89520 51.08260 17.22150 29.91960 27.68760 15.60030
687 79.52030 83.59700 22.55280 46.92470 56.87010 26.14350
688 82.81840 82.68790 65.40670 56.34460 61.50210 67.50650
689 84.68780 87.11120 75.87740 64.22040 69.80230 88.20380
690 90.47730 100.0000 89.40830 82.37580 89.91450 122.2390
691 0.000000 6.775480 38.82090 4.997930 3.325160 16.16360
692 32.73170 0.000000 47.31320 8.549220 5.134530 25.03600
693 62.73790 0.000000 56.22220 19.42680 11.18520 37.28370
694 69.27970 46.09690 62.29040 30.02050 25.59560 51.39780
695 70.85020 47.98820 73.77340 35.53350 29.55200 71.60080
696 72.33870 59.96880 85.80190 46.50400 41.83920 101.4180
697 15.33930 13.68240 20.88930 3.559890 3.058950 6.823300
698 15.84210 11.28550 25.65990 3.774530 2.946170 8.557160
699 13.11230 13.03320 30.71210 4.263990 3.353370 11.20960
700 0.000000 52.08610 100.0000 37.57880 35.24620 135.9930
701 0.000000 66.54370 100.0000 43.36660 46.47370 139.6490
702 0.000000 79.45970 100.0000 50.61020 59.16680 143.4700
703 0.000000 93.19940 100.0000 59.52450 74.53210 147.2770
704 80.00080 94.75160 100.0000 79.47170 87.20660 152.3260
705 91.23920 95.15730 100.0000 86.95270 91.98750 153.5650
706 47.06170 47.68920 90.33610 34.64370 29.49890 108.2520
707 57.64750 56.63960 100.0000 47.37590 42.86600 139.0060
708 36.31040 52.96070 39.19630 16.56650 20.61520 23.03910
709 47.03790 52.91720 41.92540 19.63590 22.30020 25.89110
710 51.57880 69.23550 54.43250 30.96330 37.45030 44.01540
711 74.07830 69.27360 84.10330 50.93800 49.61140 99.86360
712 0.000000 6.387100 16.33170 2.727850 2.195760 5.379670
713 8.167520 0.000000 18.20450 2.661630 1.958100 5.730760
714 18.19360 0.000000 100.0000 28.81600 19.40480 130.1470
715 66.79790 0.000000 100.0000 41.13010 26.42880 133.1100
716 71.02850 51.67520 100.0000 50.73170 42.93650 139.3900
717 90.11590 68.35590 100.0000 69.56470 62.68150 145.8530
718 91.12800 78.19610 100.0000 76.05490 73.10830 148.9010
719 92.96040 86.97540 100.0000 82.63100 83.24460 151.6120
720 43.00340 53.32730 53.81220 21.33890 23.57240 38.33180
721 45.74260 61.65480 61.46150 27.62180 31.15090 51.50060
722 45.34570 100.0000 67.09560 51.66890 71.09230 69.70250
723 0.000000 76.39560 18.20960 22.74580 37.57320 17.95540
724 0.000000 85.85110 31.83880 29.86790 48.64170 26.39380
725 32.71940 30.68990 12.13160 7.188240 7.578350 6.875620
726 38.87350 36.36030 0.000000 9.542510 10.47740 7.465310
727 44.38850 44.74190 0.000000 13.03370 15.07070 9.215440
728 47.24710 54.31750 0.000000 17.28040 21.62610 11.57310
729 58.41820 70.49700 100.0000 54.24930 54.63230 142.8380
730 64.22770 77.18320 100.0000 60.95010 62.81700 145.4960
731 40.74020 24.99530 44.05770 11.07700 8.536290 22.74400
732 68.17210 23.13490 43.70640 19.52100 13.33130 24.62020
733 33.66440 19.06520 20.35800 6.110480 4.981530 7.717030
734 50.99670 16.22670 22.15300 10.10390 6.884200 9.134470
735 81.72110 38.62300 19.61130 27.83880 21.81330 14.08440
736 79.72750 44.88990 28.40100 29.17040 24.64650 18.49270
737 82.63100 55.20900 38.72650 35.84820 33.12070 27.81410
738 100.0000 59.06770 59.24970 53.60270 45.31640 53.00400
739 36.22300 9.008110 0.000000 5.181860 3.688420 4.871200
740 48.48320 12.24740 0.000000 8.125140 5.545510 5.746850
741 59.14430 16.44750 0.000000 11.68090 8.009450 6.829690
742 100.0000 17.84260 22.09630 36.76310 23.01440 14.15950
743 100.0000 17.66880 31.14280 37.56680 23.43320 18.21950
744 65.27840 0.000000 48.98860 19.29140 11.11160 29.43520
745 89.19630 0.000000 60.66650 34.93370 20.64870 47.54570
746 89.44990 0.000000 76.77680 40.56320 24.00730 76.02320
747 48.00190 0.000000 35.14470 9.790410 5.858190 14.98700
748 84.14180 0.000000 34.73120 26.08760 15.60130 18.58760
749 100.0000 17.69110 40.05670 38.78720 24.08960 24.48040
750 35.14600 0.000000 8.335830 4.727720 3.142920 4.652290
751 34.55820 0.000000 14.06800 4.844540 3.203550 5.547470
752 100.0000 21.57720 13.12550 36.69990 23.47490 12.12660
753 100.0000 33.57790 22.85450 39.05660 27.10220 15.85190
754 81.05000 25.85990 30.90650 25.79990 17.60980 17.19840
755 82.85890 31.68590 38.29380 28.90730 20.61470 23.04060
756 100.0000 60.82760 43.10660 50.36640 44.15300 34.25150
757 100.0000 79.63000 51.89370 62.10760 62.61040 49.32140
758 67.94780 62.00790 31.99120 28.90440 32.26370 22.82560
759 75.38910 63.31080 66.28340 41.65700 40.56510 62.45710
760 76.04300 69.02000 65.68490 44.72230 45.46330 63.42740
761 14.74840 29.00940 13.43540 4.952120 6.028850 6.326950
762 22.56140 58.40780 21.47670 14.70510 22.21930 13.98640
763 22.51940 78.64700 29.22980 25.89890 41.09890 23.13850
764 20.56350 100.0000 29.35570 39.30670 64.24250 28.66460
765 49.91590 100.0000 37.46130 46.02940 67.93610 34.97730
766 63.87060 100.0000 40.19360 52.37170 71.45760 38.26850
767 52.73840 52.89620 21.86730 18.93430 21.87610 14.45960
768 61.53080 55.03180 48.16270 26.82200 27.17050 34.14370
769 66.82590 60.48840 66.75550 35.40130 35.11930 61.09060
770 100.0000 65.01290 92.34390 70.02610 58.82440 123.6400
771 65.34830 21.52430 48.01040 18.95740 12.69650 28.76940
772 75.65790 20.33160 56.05980 26.60310 17.00750 39.58520
773 74.95520 84.86390 73.64890 56.10500 63.14100 81.95400
774 81.03510 100.0000 88.42120 76.13590 86.16120 119.7760
775 0.000000 49.65390 44.74350 13.91630 17.61160 26.32520
776 0.000000 57.88610 44.48230 17.18420 23.33420 27.92450
777 27.03210 70.92130 48.68690 25.15220 35.39350 36.52220
778 29.49370 71.45820 82.83000 37.08820 42.78470 93.48980
779 33.19320 72.07920 100.0000 48.38050 52.58040 141.7680
780 31.97850 26.23920 75.41330 18.66700 13.27410 68.46710
781 35.68100 34.65060 80.02690 22.59020 17.45880 78.13760
782 35.89280 47.23980 100.0000 37.74250 33.20840 135.3650
783 26.86190 66.21790 50.52380 23.11460 31.33010 37.39360
784 33.42050 92.92100 62.80900 43.41120 61.72700 61.22090
785 11.06000 32.22100 24.25020 6.035390 7.414060 9.674680
786 0.000000 33.93710 22.30090 6.093770 7.835600 9.116800
787 23.64000 33.97180 34.86970 8.342770 9.028790 15.84360
788 29.20630 39.68300 68.82260 18.52520 16.56110 57.36720
789 31.57250 58.51830 74.15450 27.25600 29.43560 70.95160
790 0.000000 32.10360 32.01950 6.886440 7.776280 13.34590
791 0.000000 100.0000 92.83730 58.17060 75.82920 125.6560
792 36.80370 100.0000 93.21010 61.66170 77.87220 128.6720
793 0.000000 29.72640 42.49640 7.660380 7.712060 20.43250
794 22.35270 28.45770 78.22070 19.33730 13.87840 73.95460
795 20.27520 33.79110 100.0000 32.44740 25.44650 132.4640
796 18.43030 48.50170 100.0000 36.08850 33.04770 135.1510
797 44.83940 0.000000 75.95240 19.67110 11.53290 69.06380
798 50.56780 0.000000 86.73470 26.41270 15.75710 94.83970
799 23.60900 6.208980 61.06400 11.30460 6.648590 42.14180
800 25.23760 10.30640 86.35060 21.25770 13.22450 92.46560
801 31.59440 0.000000 100.0000 29.93530 20.21000 130.4790
802 44.26490 0.000000 100.0000 32.51970 21.64930 131.1150
803 100.0000 80.98810 100.0000 83.81500 79.43000 150.3030
804 25.21090 37.69480 24.47230 8.290310 10.13240 10.79340
805 32.34190 37.55770 22.68270 9.169120 10.61300 10.49960
806 36.05260 53.44920 26.08760 15.23530 20.16670 15.29940
807 51.19880 72.24530 25.66750 27.51050 37.19880 20.95370
808 29.71850 41.33010 13.10000 9.227950 11.75070 8.573360
809 42.51150 55.84650 18.93050 16.94250 22.10460 13.56530
810 63.12700 56.05620 18.80900 24.32990 26.32600 15.33970
811 79.08590 100.0000 18.50370 57.29150 74.90160 29.00970
812 100.0000 100.0000 18.44420 70.64700 82.87710 30.72150
813 0.000000 39.39220 32.93010 8.397580 10.68000 15.07750
814 0.000000 48.70510 36.85010 12.23040 16.24790 19.59910
815 34.95450 73.87660 72.59740 34.82460 42.75890 72.28460
816 36.02020 78.65940 72.34390 37.98030 47.99640 73.81690
817 28.58320 25.68140 22.37180 6.277000 6.105400 8.603320
818 80.94010 67.73400 21.38090 38.45350 41.04670 21.17540
819 73.89500 35.31470 0.000000 22.24790 17.68270 10.58510
820 86.51190 42.15050 0.000000 31.21380 24.91230 12.98830
821 100.0000 50.39140 15.27120 43.48750 35.51490 17.00110
822 100.0000 73.81660 17.36370 53.62570 53.48170 23.17780
823 100.0000 80.75860 30.92870 59.06510 61.69310 30.96890
824 100.0000 90.80330 29.28690 65.48290 73.09540 33.01310
825 100.0000 92.64010 54.58250 71.51260 78.24870 56.18040
826 23.08330 19.06980 0.000000 4.156210 3.915710 4.826920
827 22.65090 19.28780 14.43650 4.260980 4.020870 5.744900
828 23.21630 17.70940 17.04860 4.341530 3.872070 6.268570
829 49.25460 23.33810 60.36730 16.96010 11.58690 42.72790
830 100.0000 29.38670 74.35780 49.83320 32.34230 73.59660
831 100.0000 28.02850 83.55000 53.44220 34.32970 92.76720
832 100.0000 56.86660 84.75490 62.17400 49.37920 100.6080
833 100.0000 65.31720 84.18720 65.94490 56.20280 102.2000
834 100.0000 90.86740 93.14690 85.79110 85.89810 133.9370
835 100.0000 94.08480 100.0000 92.25670 94.01140 153.8730
836 14.54040 23.19200 10.98350 4.038980 4.480990 5.370000
837 14.80660 28.70070 0.000000 4.739670 5.840120 5.520440
838 14.99630 45.22810 42.23420 12.11780 14.61440 23.08990
839 20.14500 52.14040 60.42660 19.33660 21.62130 45.66390
840 17.16470 56.37100 100.0000 39.81070 38.42210 137.1740
841 23.50450 78.51730 100.0000 51.02900 58.75210 143.4980
842 46.82540 59.65520 68.31180 29.06790 30.96890 61.67310
843 48.62350 69.47710 84.50350 40.91680 43.62270 97.69970
844 66.03180 42.06570 53.80880 24.69900 20.86510 37.97010
845 75.71250 44.51870 66.10010 34.56030 27.50280 58.06420
846 91.45910 52.69020 77.48900 51.43640 40.97000 82.75230
847 20.52790 5.660760 17.70200 3.417320 2.530790 5.865510
848 25.74140 0.000000 13.60180 3.640030 2.494310 5.031080
849 26.52590 0.000000 8.206530 3.620910 2.488860 4.296340
850 26.85300 36.44840 33.21330 9.172220 10.28970 15.35470
851 25.69210 56.22860 57.76120 20.05840 24.13340 42.99290
852 30.95410 66.22340 66.58420 28.16920 34.22060 59.69500
853 34.77550 70.61520 92.14080 42.37280 45.75350 117.4730
854 41.42120 79.48880 100.0000 54.50680 61.15380 144.4740
855 34.83260 25.10090 31.85320 8.050440 6.948730 13.26200
856 61.93080 48.75080 35.96630 22.64070 22.05660 21.84460
857 82.23650 62.08070 41.82860 38.82430 38.09390 31.84170
858 93.20720 78.60190 43.81800 55.36890 58.24160 39.74580
859 60.32990 60.30410 31.77550 25.83920 29.34070 21.58120
860 68.83790 69.73840 35.04250 33.58530 39.41620 27.12250
861 78.31180 89.31930 88.51650 68.03810 74.04460 117.7680
862 19.59520 18.15540 42.70070 6.740140 5.194300 20.01540
863 22.75770 19.61340 69.76610 14.69210 9.681200 55.92170
864 27.43010 23.04550 81.14940 19.79970 13.47160 79.13880
865 52.73170 31.54200 100.0000 37.61060 27.85360 133.6130
866 61.11850 64.80800 100.0000 52.58380 50.18000 141.5280
867 71.69880 67.23200 100.0000 57.99230 55.24390 143.5530
868 63.85470 28.94220 44.48240 19.95640 14.27780 25.56930
869 90.59850 47.67030 50.83880 40.55690 32.57130 39.21450
870 73.47770 18.58370 19.58480 19.69640 12.93980 10.86290
871 84.82490 17.24700 24.32280 26.42040 16.77810 13.66080
872 100.0000 53.72980 64.99880 53.26650 42.53370 60.99860
873 38.67080 20.21640 26.44260 7.593660 5.935490 10.32340
874 58.17180 18.90560 28.46390 13.37130 8.996820 12.50930
875 47.42130 8.449360 33.07690 9.668950 6.058020 13.79250
876 46.83170 11.58050 46.98490 11.92760 7.442500 25.65750
877 53.07710 8.821520 52.86610 14.79580 8.896510 32.40540
878 81.36430 66.78890 93.27460 58.90720 53.37200 124.8460
879 0.000000 6.479370 26.51890 3.388890 2.540650 8.747570
880 10.22320 0.000000 26.19260 3.302180 2.291770 8.664850
881 20.82240 0.000000 83.77290 19.46140 11.51710 85.08850
882 26.19720 44.27700 91.08300 29.67050 25.35090 108.4530
883 24.45730 62.96280 100.0000 42.70990 44.03550 139.0360
884 26.84620 57.89460 82.62250 30.16080 31.18540 88.99920
885 26.13240 70.51390 89.79270 39.55430 43.95460 110.2100
886 30.94630 77.13370 93.28570 46.21860 52.55070 122.9360
887 36.13440 92.61780 100.0000 62.00810 75.46200 147.9520
888 27.97800 26.80030 40.53980 8.322560 7.387940 18.99250
889 29.95560 38.77250 41.91600 11.34680 12.13490 22.00590
890 0.000000 5.537080 7.339630 2.439060 2.014200 4.013470
891 5.093550 3.673680 13.52150 2.524060 1.972910 4.738640
892 11.45220 3.961760 16.51250 2.741610 2.087160 5.340580
893 0.000000 11.76720 19.16810 3.093280 2.662310 6.315160
894 41.10520 0.000000 56.81680 12.44180 7.298000 36.53970
895 46.43690 43.16030 59.69210 20.14730 18.54950 44.12140
896 55.80430 61.69480 67.05060 32.22370 33.74600 60.72600
897 74.85660 64.50070 76.71530 45.87060 43.68490 82.48570
898 79.55550 85.57740 79.20990 61.52210 67.02310 93.71170
899 82.63960 92.08030 82.62880 69.11730 76.39180 103.8940
900 31.86200 12.99850 14.55720 5.030060 3.797990 5.876970
901 36.21540 7.994770 11.73770 5.267660 3.698960 5.442240
902 36.74500 31.10490 24.71600 8.680070 8.463580 10.49230
903 43.02810 36.96860 29.40800 11.91290 11.90080 14.08900
904 64.57710 38.83100 34.67980 20.86420 17.39730 19.17340
905 83.14900 49.55220 55.41760 37.12820 31.05870 43.57410
906 83.40860 51.77300 63.42510 40.61240 34.14710 56.08270
907 13.92580 6.645250 13.38340 2.837950 2.254090 4.867030
908 16.22150 13.65090 8.668080 3.099080 2.779080 4.343690
909 11.43570 10.71490 46.47760 6.636820 4.399730 23.13220
910 0.000000 9.188130 51.27580 7.552440 4.811880 28.75770
911 21.54800 58.83190 50.86420 19.12120 24.89100 35.61760
912 38.70630 70.33400 49.57960 26.95910 35.88240 37.81050
913 41.84920 87.63660 49.69750 38.41300 54.83690 43.60590
914 0.000000 21.01830 8.614770 3.410890 3.767060 4.701870
915 0.000000 35.09300 10.51940 5.771110 7.943730 6.485160
916 0.000000 64.42220 15.23650 16.27390 26.34780 13.86940
917 25.39210 64.74330 79.63250 31.42400 35.35190 83.13230
918 25.06000 92.74070 80.28080 48.69580 65.01480 93.12160
919 12.98350 41.01780 24.80120 8.276140 11.28500 11.30310
920 21.52600 41.20560 28.35000 9.175350 11.76040 13.12670
921 31.49240 49.90340 44.76330 15.52370 18.58590 27.00210
922 51.31490 48.99520 72.89930 27.83510 25.27750 67.71540
923 52.33540 55.01420 73.78950 30.62620 29.50040 70.95500
924 15.22490 29.04690 23.77880 5.530640 6.341720 9.104490
925 11.25010 42.22280 44.79850 11.61340 13.47100 24.88350
926 0.000000 57.45510 56.35550 19.74720 24.60980 41.31210
927 37.08110 64.30470 67.81590 28.66800 33.30870 61.66770
928 55.33880 72.05480 72.91240 39.36100 44.07650 73.90210
929 68.18270 73.96850 72.54230 44.70550 48.52610 75.26540
930 100.0000 87.68120 79.25770 76.39050 77.27850 96.84520
931 50.95250 27.96110 22.47720 11.57710 9.471440 10.11800
932 82.23480 27.18530 23.00350 25.90110 17.88720 13.60550
933 100.0000 42.11980 33.78230 42.21030 31.38100 22.86480
934 100.0000 52.82220 46.39340 47.96600 39.04420 35.78740
935 58.21080 50.24160 7.359270 19.39240 20.76440 11.40630
936 75.07370 67.45560 13.40540 34.53530 38.50060 18.55940
937 79.63820 72.87160 7.255480 39.69410 44.83770 19.79060
938 91.05070 100.0000 54.38000 69.83900 82.11150 56.34500
939 93.37170 100.0000 84.48500 81.95250 89.42510 110.3740
940 0.000000 22.26480 35.73740 5.676620 5.056870 14.73030
941 0.000000 26.20030 34.25950 6.097770 6.047080 14.11750
942 29.64700 52.86570 62.78250 20.87570 23.09340 50.02410
943 49.64150 56.30180 92.07040 39.46590 36.23790 114.8690
944 67.32210 82.28450 93.60280 59.54060 64.08410 128.2890
945 74.23280 85.96150 93.10450 66.31390 70.99770 129.7220
946 93.65700 100.0000 94.47940 87.59650 93.55090 138.1460
947 32.07310 31.27040 25.22870 7.920400 8.140270 10.49640
948 30.84650 33.73460 29.36670 8.667170 9.208900 12.94410
949 48.06110 33.83020 38.21470 13.60550 11.91840 19.31080
950 66.75710 51.05760 92.21850 43.09940 36.08660 116.1310
951 72.68290 70.20540 92.00170 54.88690 52.90370 121.0270
952 73.78830 76.25550 94.62520 60.52970 60.64050 130.9700
953 28.43010 54.60570 38.16610 15.73950 20.92890 22.20120
954 28.68290 62.54960 37.60090 19.15420 26.99030 23.97450
955 38.54240 66.06980 55.69560 26.22900 33.02720 43.72000
956 60.06770 65.61750 66.98790 35.84770 38.01130 62.22450
957 63.85660 65.99620 73.10430 40.40820 40.83600 73.78190
958 69.06560 86.50250 90.87290 61.51980 68.19360 121.6290
959 43.51430 12.42740 5.426290 6.877700 4.822220 5.405290
960 42.27030 6.963790 8.305690 6.401940 4.290700 5.181720
961 54.83810 25.72440 27.95720 12.96850 9.804080 12.58540
962 72.91070 83.77210 27.77210 43.53070 54.88520 27.84720
963 40.48490 45.04140 19.12320 12.65720 15.02570 11.06330
964 40.38920 45.28930 42.91240 15.32940 16.51830 24.49750
965 45.21380 46.41920 52.54300 18.90290 19.03860 35.41240
966 55.72310 52.05160 66.47870 28.25330 26.82370 57.90410
967 38.82970 33.50420 41.09790 11.58520 10.70240 20.95330
968 43.67580 38.16010 42.33360 13.99840 13.37350 23.03910
969 62.95450 42.66460 77.48390 32.54480 25.57420 77.23110
970 48.05980 29.73130 51.89430 15.53090 12.01490 32.52360
971 54.44850 29.47150 51.30680 17.30930 12.93800 32.50480
972 63.24950 35.02510 63.12860 23.97210 18.25590 49.76990
973 73.44620 33.43790 78.08830 34.92350 24.42740 78.47130
974 72.35870 78.89840 85.77500 56.26880 59.06600 106.7510
975 80.25580 82.40410 88.62450 64.33650 66.44650 115.9320
976 43.26150 37.04590 63.61830 18.82410 15.76490 48.93230
977 55.07930 41.10030 67.93790 24.90260 20.52910 57.78640
978 60.07330 48.48890 100.0000 45.28270 38.07270 137.3710
979 20.32790 24.53810 41.24480 7.240310 6.368430 19.08010
980 19.43040 100.0000 41.30700 40.67720 64.96910 36.12900
981 11.93840 63.18290 41.39840 18.53270 27.12550 26.24550
982 13.40090 76.39990 61.37690 30.19000 41.87230 53.85780
983 45.82990 76.23110 71.36870 38.34920 46.34910 71.41810
984 74.90550 88.46830 70.91960 57.48790 66.71440 77.61700
985 90.86050 88.03960 72.07470 67.45410 72.30620 81.70870
986 72.26000 31.76140 14.84360 20.47980 15.71630 10.88180
987 85.24630 41.54410 12.97620 30.52120 24.37550 13.60010
988 31.24590 30.90550 70.53340 17.34300 13.36650 59.04510
989 40.32330 100.0000 86.41890 58.68530 75.59080 110.3680
990 100.0000 100.0000 93.69700 91.64640 95.87100 136.1660
991 85.84730 0.000000 66.90430 34.47860 20.34140 56.84150
992 88.02450 23.26250 74.00460 40.12510 25.43480 70.77910
993 100.0000 56.55750 75.26930 58.00200 46.53720 80.38090
994 36.06970 23.91740 27.49580 7.690140 6.581940 10.94970
995 52.67420 31.42850 37.61200 14.23560 11.61570 18.99070
996 72.44870 31.58990 38.53430 22.72630 16.76220 21.77190
997 73.15990 38.33860 47.15790 26.43250 20.82900 31.01770
998 42.18750 52.37230 30.15120 16.68850 20.49380 17.60480
999 47.02930 52.55220 36.26570 18.64000 21.57650 21.44950
1000 49.05570 56.79200 50.28210 23.42860 26.23400 35.79110
1001 67.92610 57.84600 53.45960 31.01520 31.42100 41.20840
1002 70.61080 64.37460 57.43720 36.52620 37.92160 48.80010
1003 87.42100 76.77280 84.51220 62.98890 61.48650 104.2840
1004 19.30460 17.49500 27.32810 4.589550 3.948380 9.568490
1005 92.03270 15.77480 41.41470 33.12420 20.48470 24.90800
1006 100.0000 12.57150 58.98320 42.62400 25.73700 45.75520
1007 62.57510 12.05780 44.92190 16.24840 10.12030 24.98760
1008 68.59210 9.994110 66.04610 24.39120 14.66290 53.59950
1009 69.11360 0.000000 74.73760 27.28410 16.08540 68.97110
1010 100.0000 15.30340 78.66740 49.93550 30.34670 81.74710
1011 70.85440 15.21120 0.000000 17.34250 11.19510 8.142330
1012 84.93620 18.91310 0.000000 25.91040 16.71110 9.976230
1013 100.0000 16.03500 0.000000 36.02410 22.44080 10.99020
1014 100.0000 81.88260 0.000000 58.20330 61.88200 24.15670
1015 16.80550 9.218200 6.186350 2.935590 2.404060 4.207520
1016 19.52230 6.964910 0.000000 3.016900 2.353040 4.200080
1017 18.95050 0.000000 7.833840 2.827300 2.051610 4.078970
1018 24.14480 24.41550 13.17240 5.024430 5.184470 6.068240
1019 55.97490 84.45680 25.26450 36.57090 51.16100 24.86650
1020 60.52960 87.48980 36.85800 40.45970 55.82150 32.76020
1021 26.48230 86.35640 13.60090 30.20400 49.20780 20.33050
1022 27.45810 100.0000 17.16500 39.21580 64.21840 24.22270
1023 22.93450 29.43590 0.000000 5.522210 6.460900 5.803780
1024 35.67660 27.71030 8.251240 7.134180 6.954420 6.114910
1025 56.49330 28.57920 12.11690 12.25910 10.14010 8.171420
1026 89.79580 36.94830 13.91120 32.20970 23.99910 13.38400
1027 100.0000 65.14160 34.47320 50.96610 46.82520 28.69370
1028 100.0000 75.85430 40.57050 57.53290 57.42760 36.10200
1029 17.30520 22.77170 34.55720 5.876380 5.401190 14.17340
1030 16.76730 32.73490 41.84650 8.837040 8.868120 20.66200
1031 20.28660 33.19010 61.85390 14.02480 11.81210 44.80930
1032 53.98570 35.02640 81.84130 28.48230 20.88950 84.37430
1033 22.62710 4.816720 30.69250 4.602320 3.115530 11.22280
1034 29.82120 18.23220 29.60590 6.160040 4.896450 11.30620
1035 66.97970 20.39300 54.55580 20.96740 13.68070 36.38210
1036 69.96680 20.28190 65.75920 25.96540 16.52060 53.57330
1037 92.43900 20.74840 69.79100 41.23720 25.70780 62.64190
1038 92.73610 66.57250 72.87930 56.45320 51.04120 76.86840
1039 92.86750 67.41810 80.54720 60.03230 53.67140 93.26150
1040 0.000000 13.10730 31.58930 4.145680 3.288940 11.39370
1041 6.654210 16.78210 32.05920 4.497990 3.807390 12.05430
1042 12.09740 16.09370 45.74110 6.951140 4.995600 22.98260
1043 7.381030 23.20890 63.39020 11.95310 8.761920 45.51570
1044 22.97560 51.24980 71.31380 22.25420 23.31150 63.38800
1045 47.28300 67.40320 76.83030 36.13810 39.40550 80.15090
1046 39.57560 28.99170 21.02300 8.708590 8.076440 8.973610
1047 39.84080 33.56220 21.88760 9.676870 9.669930 10.08660
1048 51.74830 58.16730 20.49930 20.54120 25.18910 15.27320
1049 54.14020 91.40040 30.72890 40.98430 58.83580 29.44080
1050 21.66460 36.25410 9.691570 6.838500 8.908380 6.895210
1051 40.94670 70.96890 0.000000 23.19060 34.02540 15.52600
1052 57.52910 91.09630 0.000000 40.87030 58.63650 22.75530
1053 69.35050 92.38210 20.97100 46.57620 63.35050 26.85330
1054 66.62050 75.88540 16.36140 35.87220 44.32420 20.55700
1055 70.16920 84.52500 37.60890 43.48140 55.43990 33.64400
1056 71.35580 90.77080 61.74020 53.78350 66.13950 62.98550
1057 76.40630 100.0000 79.82830 69.16640 81.68000 97.53690
1058 36.94640 43.97870 76.11710 23.75250 21.05320 71.95320
1059 73.57780 46.26170 80.31880 39.35170 31.24400 85.31990
1060 89.96390 48.88820 84.88750 52.41630 40.22830 98.84940
1061 69.01290 12.68090 26.37990 16.67390 10.54650 12.49770
1062 91.87830 10.70400 25.29480 30.81050 18.86910 14.43010
1063 92.32350 14.21370 100.0000 55.68260 36.09920 136.4160
1064 17.03300 15.34410 79.87180 17.70480 11.13230 75.48680
1065 18.54700 69.48140 77.89810 32.53340 38.81790 81.43240
1066 22.02090 78.16140 89.82580 43.70390 51.80740 112.3720
1067 26.96140 75.37800 64.23460 31.59210 41.84700 58.22120
1068 25.55350 89.97700 65.79880 41.44190 58.62820 65.03540
1069 17.11820 59.42370 0.000000 14.25500 22.59800 11.52630
1070 84.81080 58.37130 0.000000 35.99770 34.55340 16.42100
1071 100.0000 65.05970 17.34290 49.31800 45.85880 20.77830
1072 49.19400 20.50280 0.000000 8.934870 6.855280 6.257240
1073 57.82540 21.57140 23.48140 12.41130 9.001360 10.62930
1074 73.89760 0.000000 10.81520 18.55180 11.24540 8.485220
1075 87.54090 0.000000 12.95820 26.74540 16.11460 10.37110
1076 87.98380 14.50980 10.62350 27.58500 17.24510 10.40240
1077 67.69390 35.01320 7.167010 18.31030 15.16790 9.632970
1078 67.88330 39.75200 0.000000 19.49830 17.28690 10.41280
1079 88.66560 52.82500 0.000000 36.16430 32.15630 15.49220
1080 53.99550 35.62950 51.16810 18.43280 15.18020 32.86220
1081 54.39390 48.24050 54.94660 23.02040 22.14960 39.51120
1082 61.19580 50.55060 64.58950 29.44860 26.81390 54.91100
1083 65.77490 55.13760 64.26170 32.10400 30.78450 55.96230
1084 84.31120 60.84840 84.30480 52.69760 45.76790 98.75240
1085 16.70240 0.000000 57.78050 9.288470 5.437570 36.38050
1086 17.15760 38.11370 69.14190 16.84620 15.10230 57.01240
1087 13.34710 45.76190 69.58860 19.50880 19.23880 58.93130
1088 11.87220 63.60210 76.09990 28.45090 33.11250 75.04630
1089 0.000000 89.14910 74.99210 42.83710 58.99670 79.72690
1090 31.45150 84.96620 72.82200 41.16240 54.39060 75.97850
1091 29.60830 93.03780 85.47350 51.99630 67.42190 105.2380
1092 15.08030 39.63460 32.00000 9.061890 11.08720 14.63920
1093 10.07420 50.59830 43.47140 14.15650 18.18520 25.44500
1094 0.000000 90.02570 43.85130 34.71470 54.89370 36.63030
1095 13.03760 70.62580 35.22730 21.23110 32.83340 24.09760
1096 55.90250 72.04410 48.71620 32.56790 40.07340 38.63420
1097 56.19630 77.04620 59.17130 37.92960 46.43290 52.86450
1098 70.13550 78.58090 63.78670 45.87480 52.58020 62.31040
1099 80.92580 86.51080 64.20670 57.43990 65.09460 66.62240
1100 70.15770 71.61010 49.90160 38.12180 43.30880 41.48120
1101 80.82240 74.69420 49.40100 46.06720 50.03210 43.28950
1102 89.08980 100.0000 65.24720 71.59360 83.06770 72.03020
1103 92.20330 100.0000 74.66830 77.10550 86.33020 88.90340
1104 81.19050 62.66760 61.60590 43.14090 40.90230 55.61730
1105 100.0000 68.15060 65.72320 59.85120 53.90740 66.04450
1106 100.0000 81.28870 84.50150 74.81000 71.73620 107.4740
1107 16.10810 4.913350 24.96860 3.511070 2.531830 8.016590
1108 13.38660 8.264070 29.29470 3.890250 2.868870 10.15070
1109 13.47100 0.000000 35.59120 4.457980 2.903390 13.95960
1110 15.55550 38.14010 43.76680 10.39610 11.25860 23.40040
1111 16.00750 49.08040 51.73200 15.59060 18.18120 34.13410
1112 12.46520 46.46470 18.84190 9.427290 13.85190 10.35310
1113 37.21220 48.90330 18.85050 13.24200 16.99690 11.70990
1114 80.62900 58.33120 19.31460 33.90820 33.37130 18.17530
1115 90.09430 100.0000 17.47660 63.94080 78.85690 29.77260
1116 14.30590 36.22520 0.000000 6.265490 8.609610 6.547020
1117 14.24730 36.36320 90.48860 26.35100 20.64050 104.2300
1118 18.60550 41.46410 100.0000 34.37910 28.94780 133.8050
1119 30.58010 17.68100 55.73700 10.88970 7.437680 34.76380
1120 40.24100 16.27810 61.24420 14.21750 9.124150 43.28190
1121 62.78740 14.00710 85.26820 30.84860 18.73050 91.91100
1122 100.0000 15.50230 91.31000 56.20120 34.62840 112.7410
1123 100.0000 74.99790 91.48220 74.71250 67.55530 124.2920
1124 76.75160 57.43590 43.32020 34.13290 33.13450 31.35960
1125 80.78760 69.49250 50.46960 43.32120 44.88830 43.03240
1126 86.16570 74.13390 62.96860 52.27730 52.95860 61.57230
1127 92.84670 76.79770 75.03160 62.83000 61.14290 84.72550
1128 46.91180 43.06010 35.47000 15.36910 15.88350 18.94220
1129 53.53180 50.58610 38.40220 20.17800 21.59140 23.14260
1130 52.72210 83.97380 45.98050 37.78770 51.31970 38.87720
1131 0.000000 29.27330 24.35760 5.303440 6.227600 9.221670
1132 8.012090 28.73340 30.78290 6.085670 6.489880 12.40730
1133 0.000000 69.89750 54.92840 24.48090 34.29700 42.46950
1134 0.000000 88.90160 54.90510 36.25180 54.79920 48.13440
1135 8.501340 93.32960 73.95690 45.21950 63.32410 79.43320
1136 20.07300 100.0000 92.40550 58.53970 76.00490 124.7140
1137 23.35980 80.37330 72.80060 37.10670 48.68310 74.16410
1138 43.80850 80.77170 79.50200 43.76480 52.76250 89.03180
1139 62.96840 100.0000 79.68880 63.19020 77.74150 95.78810
1140 8.661500 19.57820 44.38810 6.791340 5.339900 21.46980
1141 11.16320 26.86770 59.26550 11.28260 8.944180 39.35500
1142 9.148280 34.57680 70.59460 16.36670 13.68110 58.48020
1143 15.10610 46.67910 79.28630 23.61420 21.97470 77.77350
1144 46.94620 64.90600 84.99470 38.58990 39.71670 97.84280
1145 53.18380 91.59600 85.32270 56.38580 68.42650 106.6160
1146 70.76470 100.0000 93.25990 72.96770 84.64580 131.9410
1147 51.98360 12.57660 16.01560 9.291690 6.243290 7.361850
1148 55.60240 8.203340 30.86110 11.19750 7.056890 13.17400
1149 70.85350 0.000000 30.30780 17.91850 10.77580 14.52550
1150 88.53010 0.000000 29.06940 28.25290 16.93460 15.81150
1151 89.63000 0.000000 43.54500 31.06400 18.48020 26.28490
1152 18.79180 67.14390 9.716960 17.78150 28.64760 13.68440
1153 18.84740 77.41650 0.000000 23.37910 38.51310 16.54640
1154 24.13190 88.91820 0.000000 31.39030 51.81570 20.14770
1155 48.22450 100.0000 15.81610 43.68780 66.68860 25.06720
1156 33.33810 61.49800 0.000000 17.05400 25.11220 12.53720
1157 31.89220 67.55110 10.86720 19.53000 29.75210 14.37250
1158 30.14420 92.15800 44.39870 37.79110 57.85700 38.10830
1159 20.72120 76.31750 46.26720 26.87950 39.90690 35.23610
1160 18.27680 82.69160 100.0000 52.89750 62.64270 144.4810
1161 19.92180 94.11770 100.0000 60.38180 75.28950 147.5070
1162 5.840420 39.14080 53.81540 12.41130 12.76090 33.84340
1163 0.000000 52.23260 62.94470 19.41250 21.82670 49.56990
1164 13.87330 74.90960 77.42540 35.04490 43.86820 81.50530
1165 0.000000 37.43300 55.77220 12.43670 12.22840 35.99990
1166 0.000000 44.98500 80.17070 23.19790 21.16980 79.74490
1167 0.000000 44.79760 88.57920 27.27850 23.74850 100.1770
1168 0.000000 86.87440 89.14720 48.04190 60.64620 112.7160
1169 6.218490 8.614710 3.907120 2.538130 2.195570 4.091640
1170 0.000000 6.251460 11.89570 2.575580 2.117930 4.611730
1171 10.26460 11.73700 15.11890 2.952400 2.590050 5.260430
1172 5.409650 15.93650 11.01220 2.997700 2.932000 4.740740
1173 0.000000 14.98570 8.004260 2.855580 2.773570 4.309820
1174 46.95570 23.59900 67.46180 18.70560 12.66770 54.33750
1175 86.16790 38.91640 82.24120 45.21950 32.12490 89.50250
1176 86.91870 46.97720 100.0000 58.39040 45.41360 140.1340
1177 56.98500 26.99100 57.03060 18.93540 13.32270 38.88030
1178 82.30300 34.68190 71.09820 37.32820 26.06370 65.79450
1179 100.0000 38.16900 70.94010 50.26800 34.74370 67.94250
1180 34.78190 0.000000 65.40840 13.70080 8.041540 49.21820
1181 33.79550 11.46010 92.84190 26.07260 16.55470 109.9270
1182 35.71410 0.000000 88.76060 23.82460 14.46390 98.87790
1183 36.21740 28.56660 86.90300 25.04310 17.74260 94.92790
1184 36.98860 33.74690 100.0000 34.22810 26.66820 133.0310
1185 48.52850 48.09130 100.0000 41.29750 35.71460 136.5140
1186 49.36030 19.85070 33.54280 10.57690 7.629290 14.70690
1187 56.63080 54.94330 33.85290 22.09280 24.53670 21.08680
1188 66.13610 55.74610 34.47580 25.94770 27.42980 22.90310
1189 29.18490 17.81330 7.593990 4.792190 4.128750 4.966250
1190 29.39240 17.51870 0.000000 4.802670 4.087240 4.953230
1191 34.81540 15.52710 8.022710 5.529080 4.274110 5.073210
1192 61.66240 50.49600 55.21800 26.85760 25.30140 41.25130
1193 76.69210 55.01400 63.35040 37.96950 33.95360 56.06830
1194 9.784190 5.234370 7.049850 2.477770 1.992860 4.016500
1195 0.000000 8.977540 6.427190 2.536610 2.194120 4.088830
1196 0.000000 0.000000 0.000000 2.307970 1.773780 3.920310
1197 7.754970 0.000000 6.485010 2.307150 1.774230 3.919460
1198 28.40280 65.81150 23.14150 19.04090 28.77340 16.91550
1199 27.84540 81.33250 57.11540 33.34130 47.22110 49.67770
1200 65.96670 100.0000 54.74970 54.57680 73.01950 53.92210
1201 32.97190 51.63030 31.56760 14.53980 18.97980 17.38810
1202 38.51820 60.21540 41.35700 20.32030 26.34180 26.44810
1203 76.09080 82.09280 45.33020 47.04230 55.76680 40.65450
1204 65.16150 42.76590 20.94000 19.60580 18.37980 13.19340
1205 89.02980 46.31100 26.04580 35.00560 28.74950 18.69930
1206 71.65220 44.27900 28.65780 24.33090 21.64880 17.67230
1207 82.29470 51.65250 29.84120 33.11500 29.87690 21.19640
1208 82.35850 69.63000 34.09830 41.42710 44.03190 28.24280
1209 84.20130 82.45020 34.11980 50.07060 57.88070 32.30190
1210 48.75940 33.78610 0.000000 11.43230 10.72750 7.672820
1211 48.68580 41.09510 17.88200 13.57550 14.14610 10.55280
1212 60.01890 46.88110 19.94840 19.44930 19.56960 13.25870
1213 62.71820 60.39330 54.37360 29.88830 31.90200 42.64020
1214 70.75520 67.63410 55.33040 37.85000 40.62650 46.67790
1215 74.74790 74.68940 60.27220 45.40500 49.60210 56.11650
1216 77.74760 36.00810 27.27850 25.75300 19.93550 16.16120
1217 92.23300 65.43160 30.50830 45.68340 44.19250 26.09500
1218 47.05060 88.35450 14.24200 35.84760 53.90960 22.13210
1219 45.98300 92.82350 90.27140 58.06140 70.82240 120.2270
1220 51.19490 94.63380 100.0000 67.01400 79.61960 149.3100
1221 12.09540 16.85910 17.56200 3.464380 3.306740 5.974600
1222 4.450900 14.03130 15.20980 3.003760 2.768130 5.328780
1223 0.000000 16.42430 19.96920 3.443810 3.253940 6.710680
1224 0.000000 22.43660 21.87000 4.136650 4.373970 7.638060
1225 28.70330 23.72310 30.13680 6.728800 5.987080 12.13580
1226 75.49830 21.35360 33.44080 22.43810 14.82420 17.67670
1227 89.15240 56.23300 83.48020 53.68510 44.07070 96.16690
1228 45.64650 28.54730 63.84340 17.76030 13.03030 48.61730
1229 57.53220 29.05550 84.37640 29.89210 20.33550 90.26740
1230 24.63920 11.98730 68.29310 13.95390 8.457260 53.55960
1231 49.74010 0.000000 66.85580 17.75210 10.30980 52.77010
1232 70.01840 10.27310 92.74640 37.18640 23.07080 113.1950
1233 63.34690 0.000000 88.36760 32.50230 19.27260 100.5380
1234 79.65140 28.07760 92.61450 44.72330 29.72390 115.5100
1235 90.66020 28.07070 92.34250 51.54720 33.74170 115.2840
1236 39.92960 8.002520 39.88710 8.796580 5.548730 18.23260
1237 81.52190 23.12950 48.13280 28.41040 18.56130 31.40160
1238 82.74820 27.68600 58.45860 32.13780 21.44540 44.20100
1239 24.37360 12.55090 18.64260 4.128410 3.256970 6.338370
1240 23.29800 12.05650 22.00370 4.209480 3.258000 7.466760
1241 86.85870 11.82260 48.46550 30.72900 18.67830 31.80170
1242 88.72690 0.000000 50.95270 32.14200 19.04590 34.55600
1243 89.33350 27.70500 100.0000 55.06870 37.62050 137.2220
1244 34.10320 0.000000 39.02100 7.148680 4.375630 16.88660
1245 54.89100 38.65470 39.26190 16.92810 15.09550 21.40520
1246 54.61460 48.06550 41.03390 20.08900 20.50780 24.74010
1247 61.63350 49.95630 46.54480 24.56310 23.56270 31.28250
1248 21.65260 12.41030 0.000000 3.433710 2.848830 4.404990
1249 23.99370 14.54710 8.880080 3.851580 3.268250 4.589150
1250 48.22250 64.46010 18.24080 22.31310 29.70340 16.08060
1251 53.18100 76.33290 18.61140 29.93210 41.31280 19.77990
1252 65.49850 100.0000 17.54320 50.98350 70.73900 27.04720
1253 73.68360 100.0000 48.41440 57.76490 74.95300 47.58500
1254 28.31060 26.96130 0.000000 5.831130 6.108700 5.721040
1255 36.60130 44.50770 0.000000 11.13400 13.89820 8.687210
1256 49.98610 60.53640 9.382790 20.44870 26.26540 13.36900
1257 59.55600 78.15020 12.20120 33.42640 44.72110 19.73110
1258 73.43250 80.71080 0.000000 40.78170 50.87800 21.48990
1259 100.0000 82.57980 17.71550 59.11390 63.07490 26.11850
1260 100.0000 91.26160 16.13820 64.78540 72.96160 28.35320
1261 100.0000 91.05670 40.88590 67.34850 74.48160 40.90790
1262 28.45690 20.05390 16.57240 5.189850 4.624410 6.445110
1263 30.16310 17.50130 74.87780 17.00560 10.97560 65.89840
1264 31.61250 18.06660 100.0000 30.83320 21.76830 131.1880
1265 61.03500 15.71130 100.0000 38.86060 25.95040 132.9900
1266 42.28470 21.31030 48.94320 12.06910 8.528800 28.09480
1267 61.27820 27.96220 53.23940 20.16680 14.20240 34.90540
1268 47.62680 36.05190 35.47950 13.60780 12.63050 17.75760
1269 47.65790 36.30650 44.13060 15.06510 13.42390 24.66710
1270 68.44230 38.31720 74.74670 31.54590 23.77730 71.40450
1271 74.83420 74.37330 80.78980 52.62070 53.80030 93.27710
1272 76.00790 80.88050 82.14980 57.95670 61.53910 98.80140
1273 77.84410 91.48330 84.89000 67.40240 75.11490 108.9250
1274 92.18210 91.57530 85.33750 76.32010 80.41080 111.2090
1275 31.49530 24.32850 23.76550 6.599950 6.040120 9.147140
1276 34.76620 58.15870 32.88950 17.51800 23.61430 19.94580
1277 38.67430 79.59590 42.68870 30.83210 44.34800 33.42650
1278 69.38040 85.77020 77.15770 54.64420 62.94800 88.48000
1279 78.34540 94.19340 80.32210 67.23930 76.96690 98.59540
1280 50.03410 55.45660 63.29510 26.77830 27.53300 53.18000
1281 59.46040 58.73600 67.11710 31.50390 32.00630 60.41500
1282 68.53230 72.79520 83.15010 48.88720 50.52940 97.31940
1283 81.06700 74.25240 94.64070 63.78250 61.38680 131.4070
1284 5.478980 3.593120 22.14400 2.960040 2.199070 6.965470
1285 0.000000 20.96950 52.82130 8.722400 6.561180 30.70260
1286 9.374260 53.56620 68.28070 21.82280 24.00030 58.37840
1287 0.000000 58.50620 73.37310 24.82480 28.18400 67.95760
1288 0.000000 60.70060 88.63620 32.97330 34.59580 103.7560
1289 13.03920 66.71320 89.09630 36.27970 39.87780 107.0650
1290 17.68190 73.62770 100.0000 47.37450 53.02840 141.7700
1291 56.96820 19.85640 42.20640 14.74780 9.822520 21.93340
1292 58.52730 19.79540 79.59500 26.52260 16.68180 77.89100
1293 58.07650 43.50350 83.37070 32.97710 26.29360 89.65420
1294 62.20190 62.64740 85.32620 43.22980 40.96550 99.39750
1295 38.34230 37.76470 57.95050 16.25370 14.53620 40.50910
1296 48.51170 34.34400 62.73120 19.41570 15.27930 47.79450
1297 49.41610 42.93790 65.31760 22.75220 19.93130 53.58660
1298 65.39080 42.68650 64.60360 29.18780 23.48650 53.91510
1299 72.29860 74.57920 100.0000 62.35480 62.37880 145.7540
1300 76.15290 83.12820 100.0000 69.57320 72.58910 148.7320
1301 79.55880 89.41870 100.0000 75.73310 81.04930 150.9620
1302 47.66640 20.78400 19.06330 9.514510 7.124140 8.197870
1303 66.23030 29.16160 18.73650 16.78610 12.86820 10.53340
1304 71.67530 53.70300 17.81800 26.87100 27.12560 15.56410
1305 87.44610 54.68420 14.94660 36.18860 32.92430 16.83250
1306 92.04160 70.35570 21.19650 46.88120 47.67710 23.01850
1307 42.61540 39.82160 12.45220 11.41370 12.48950 8.812140
1308 53.23480 40.60530 9.219740 14.42910 14.38450 9.078560
1309 71.84130 44.08300 36.55380 25.15070 21.98750 22.37200
1310 93.57620 63.07990 43.58560 47.06780 43.68960 34.93620
1311 84.92390 34.78850 23.67550 29.13670 21.57760 15.28170
1312 92.63110 34.03120 74.27480 45.53470 30.88510 73.11770
1313 100.0000 41.21600 82.41670 55.75560 39.15070 91.88420
1314 27.68280 12.02650 16.36780 4.398460 3.373800 5.954310
1315 29.54530 5.785430 16.01620 4.435500 3.097290 5.864320
1316 54.71070 0.000000 15.16440 9.620850 5.951760 7.012020
1317 73.64150 8.843420 20.28190 19.01730 11.77760 10.59550
1318 42.98130 14.08020 13.72070 7.412120 5.195280 6.391720
1319 59.36980 23.35080 7.436090 12.42180 9.309750 7.336630
1320 73.71510 30.78220 58.30090 27.50510 19.28950 43.48220
1321 78.17180 35.46630 87.58680 42.79530 29.98960 102.3670
1322 82.30660 43.68980 91.03220 49.02260 36.49280 113.6510
1323 43.93250 23.81870 38.73970 10.78650 8.218890 18.42830
1324 46.06370 21.86120 44.60210 12.11920 8.613400 23.65210
1325 61.38040 45.44880 46.93320 22.15670 20.78940 30.85320
1326 73.11890 47.82160 55.19120 31.14540 26.98040 42.19670
1327 86.06100 60.27910 60.67940 44.93020 40.77270 54.50040
1328 94.24270 83.31630 69.55770 65.71300 67.62250 75.94100
1329 94.80810 87.32240 82.20770 73.77240 75.60230 102.6610
1330 16.13910 20.72900 23.33410 4.412450 4.298570 8.149800
1331 21.24360 26.65450 28.91420 6.106890 6.197620 11.48460
1332 18.64730 45.72530 61.44010 16.82480 17.85660 46.32730
1333 33.53760 44.96500 68.12080 20.52130 19.53040 57.52620
1334 39.16160 50.08270 68.27300 23.37030 23.20620 58.90160
1335 55.05220 59.84170 71.07530 32.62940 33.16130 67.05240
1336 66.08920 70.07300 86.68270 48.15560 48.53170 105.4710
1337 14.99830 24.01670 20.27750 4.542590 4.869750 7.368470
1338 14.15730 67.50380 26.56230 18.69790 29.52330 18.30080
1339 11.59140 81.56040 39.40920 28.19310 44.46500 30.08000
1340 29.20680 82.64240 64.60580 36.48980 49.92140 61.16270
1341 43.08390 84.16690 73.98060 43.56960 55.15190 78.99150
1342 53.58750 85.03630 84.76390 51.65770 60.58660 102.7570
1343 5.704780 11.01030 8.015070 2.623530 2.343240 4.141260
1344 13.10830 7.798970 10.83470 2.735080 2.233030 4.483280
1345 11.10820 10.40910 3.618120 2.701540 2.350280 4.153860
1346 29.29410 11.32580 9.316530 4.310330 3.264630 4.618140
1347 80.41790 8.935570 10.07130 22.44760 13.84130 9.200150
1348 86.73560 76.56010 32.91230 47.76730 52.03900 29.89130
1349 45.84370 52.39390 22.47140 16.88520 20.57970 14.08180
1350 44.86880 59.32050 30.22740 19.94980 25.60520 19.36150
1351 50.70930 65.15630 29.17310 24.02610 30.91580 20.56290
1352 27.45770 38.99510 20.39760 8.610820 10.63870 9.782160
1353 31.39520 39.30610 32.09950 10.32610 11.69740 15.22190
1354 32.81260 39.05820 38.11930 11.27990 12.10550 19.16340
1355 83.53920 44.64250 43.93500 33.33870 27.04150 29.95580
1356 59.73970 28.46320 24.32580 13.97060 11.05710 11.62240
1357 66.93950 27.21860 23.99760 17.09600 12.65940 12.30960
1358 73.98580 46.85670 21.46400 25.81560 23.45230 15.22740
1359 74.18630 57.06380 34.84540 31.10890 31.23640 24.56010
1360 84.10070 63.22020 68.25270 47.38320 43.78510 66.83210
1361 86.85710 70.11690 76.57730 55.68170 52.65120 85.39330
1362 100.0000 87.04090 84.60260 78.38280 77.96980 109.0870
1363 42.43380 44.95970 32.15430 14.26130 15.92790 16.91880
1364 42.09740 86.63660 30.67510 34.39280 51.60270 27.33100
1365 76.25330 94.39630 31.96850 53.23570 68.70960 33.31000
1366 49.59000 44.25830 11.59600 14.46020 15.73890 9.890500
1367 61.86950 59.34430 9.500920 24.74770 28.13140 14.22160
1368 65.83030 86.58640 27.25350 41.23890 55.64600 27.31190
1369 78.52620 93.30110 59.63800 59.33260 71.46140 60.82480
1370 15.54480 28.27630 7.555430 4.720590 5.765480 5.497870
1371 14.43050 36.64350 9.722790 6.398320 8.787780 6.818370
1372 33.67470 36.45980 69.93390 18.92100 15.80310 59.42100
1373 41.74500 40.72130 77.23510 24.43100 20.34670 74.28730
1374 69.34970 49.43660 85.38240 40.02730 33.03310 97.07890
1375 81.10310 52.99620 100.0000 57.01770 47.16360 140.8790
1376 41.52730 29.68840 51.90930 13.81170 11.07240 32.06330
1377 40.84170 34.63780 52.79220 14.76510 12.75890 33.58590
1378 41.53960 46.73730 39.22720 15.57130 17.33350 22.01800
1379 54.64010 55.88480 40.45460 22.89170 25.60450 25.93200
1380 69.71310 65.82260 40.67790 33.18030 36.97570 30.44260
1381 91.52570 66.76250 51.76690 49.26870 46.81170 44.85410
1382 48.82150 16.09650 65.66960 17.74460 11.11950 51.06730
1383 86.32670 12.21020 81.17940 40.59180 24.54420 84.42360
1384 80.57190 0.000000 78.63290 35.96100 21.28960 78.99550
1385 12.28970 17.19450 10.43070 3.248870 3.238860 4.695530
1386 9.961950 22.06340 0.000000 3.610200 4.034050 4.815810
1387 9.164350 20.59660 5.477260 3.405660 3.713240 4.684900
1388 86.95880 27.15780 6.546110 28.21090 19.30400 10.85630
1389 91.44610 37.28890 33.45120 35.15050 25.78740 21.23170
1390 90.73130 69.38000 48.03290 49.12840 48.34290 40.91130
1391 91.74770 81.36400 57.82610 59.04850 62.26930 56.73150
1392 93.50910 89.47170 58.11510 65.75510 72.56240 59.32140
1393 35.39920 35.05630 23.17790 9.117890 9.759180 10.39150
1394 36.39840 75.80250 26.26010 25.99070 39.01070 21.56310
1395 44.88460 82.64970 88.62400 49.74250 58.04370 112.0790
1396 57.91680 89.44430 94.21990 62.11420 70.88160 132.2040
1397 18.47880 28.04940 71.10400 15.91830 11.81440 59.28790
1398 12.97450 23.28510 72.53300 15.26080 10.66830 61.00150
1399 7.986650 28.74150 81.68320 19.75200 14.42410 80.66390
1400 0.000000 71.50380 85.97200 37.10120 43.32380 100.2140
1401 14.51680 84.17410 87.67220 45.69330 57.05630 108.4850
1402 6.798520 37.77440 34.85380 8.561730 10.20690 16.16200
1403 8.054620 44.29430 37.45310 10.78760 13.68700 18.96390
1404 19.55890 61.88740 62.02790 23.25670 29.02540 50.63760
1405 58.69200 83.18640 67.33830 45.41580 55.08170 68.20960
1406 63.12920 83.90420 78.52070 50.87020 59.26690 90.32480
1407 70.73880 84.37910 82.42900 57.35550 63.76100 100.4550
1408 78.53590 86.11540 89.02370 66.20300 70.50020 117.6390
1409 15.07360 16.63390 30.29530 4.587500 3.858340 11.19290
1410 22.24910 16.41540 48.11250 7.954870 5.678230 25.83450
1411 29.17240 23.72650 48.05560 9.630760 7.565420 26.65020
1412 28.21900 23.38200 65.50020 14.04380 10.01160 49.56710
1413 26.37960 29.23100 92.71690 27.58860 19.46480 110.6880
1414 18.68620 100.0000 51.40740 42.70970 66.08590 46.75380
1415 25.36480 100.0000 67.94090 47.98770 69.07100 70.04850
1416 36.25590 100.0000 75.50500 52.60910 71.77250 84.86610
1417 19.55170 29.22190 48.88750 9.870730 8.523960 27.71490
1418 22.28130 33.13030 69.68550 16.77540 13.37950 57.22690
1419 23.27800 34.99120 81.91580 22.34660 17.23840 82.31290
1420 36.79960 63.56330 82.68670 34.33120 36.48480 91.15330
1421 90.93460 25.87510 15.71680 30.94930 20.74500 12.38670
1422 90.80450 28.83270 29.78150 32.35700 22.00330 18.00450
1423 71.98600 39.08220 40.46020 24.48600 19.94850 24.34010
1424 81.07560 41.43820 47.19590 31.69040 24.94060 32.47770
1425 81.13940 49.87470 49.18800 34.73450 29.83200 36.31490
1426 22.35040 10.05630 7.310420 3.396550 2.691370 4.345610
1427 22.52330 2.609500 7.770450 3.166900 2.281850 4.185660
1428 69.92600 9.191370 37.28340 18.43550 11.32100 18.93600
1429 71.46930 24.08550 77.41800 31.53470 20.46580 75.84780
1430 90.70320 25.71180 83.81730 46.62570 29.87460 92.60540
1431 11.42620 84.42670 12.13470 27.69300 46.36390 19.25090
1432 40.11290 83.23150 18.13110 30.75210 47.02940 21.08880
1433 20.30880 34.68410 14.83170 6.464370 8.208790 7.455670
1434 35.55150 43.93870 9.307290 10.87310 13.62310 8.591330
1435 42.46300 52.34240 9.170240 15.14390 19.38840 10.71620
1436 48.46970 63.94650 0.000000 21.69040 28.91510 14.03690
1437 63.11590 71.65510 48.48640 34.27090 41.04990 39.26750
1438 0.000000 0.000000 0.000000 2.306330 1.775560 3.920590
1439 22.82610 15.63810 31.61590 5.206030 4.102260 11.82400
1440 26.12050 26.22390 30.20850 6.696390 6.450810 12.28250
1441 27.22550 31.70520 47.54010 10.52840 9.748390 26.56170
1442 26.03530 52.45610 92.05960 32.93540 30.79810 112.4420
1443 26.48280 62.74180 92.21910 37.38900 38.42540 115.6850
1444 7.362030 16.25220 19.91580 3.377120 3.176750 6.518530
1445 15.50760 20.20090 16.55820 3.870140 3.907030 6.075270
1446 20.03280 34.58920 25.46920 7.122760 8.573050 10.74220
1447 27.79860 33.99420 24.99050 7.847860 8.859890 10.54170
1448 53.96340 54.06940 47.67180 23.48330 25.03090 32.88510
1449 64.83440 56.73140 58.73070 31.83220 30.91190 47.68330
1450 90.07880 59.36070 78.99080 53.63900 45.52840 87.46240
1451 56.53210 27.07790 67.94040 22.19960 15.21260 55.92960
1452 62.27630 46.24160 69.70160 28.85920 24.93310 62.27780
1453 64.82740 53.40920 74.55200 35.85610 31.82330 73.28530
1454 67.97550 58.96410 74.84140 38.16890 35.97690 75.49340
1455 84.43090 93.17760 76.50790 68.39590 76.86080 90.46710
1456 67.45110 60.65300 48.61250 32.49430 33.24010 36.73010
1457 73.65960 68.55450 49.17640 38.61400 41.70650 40.21880
1458 56.05210 41.22020 30.67490 16.97830 16.03850 16.43740
1459 56.65190 48.26260 32.39170 19.63870 20.26280 18.64860
1460 75.83890 69.30560 36.30130 38.02520 41.83290 28.80180
1461 20.36990 18.79440 8.488390 3.863690 3.754970 4.745360
1462 26.31960 26.80840 6.402290 5.513470 5.874160 5.612470
1463 47.38920 29.12700 11.79990 9.849690 8.801280 7.537170
1464 55.29220 33.63720 13.95290 12.94920 11.73140 9.069480
1465 78.78570 33.67080 7.530080 24.66220 18.65030 10.88510
1466 43.60630 0.000000 22.21830 7.053170 4.435390 8.162310
1467 45.63530 11.87700 28.60160 8.781790 5.779040 11.37730
1468 51.63280 100.0000 58.60450 51.01960 70.69600 57.59290
1469 15.58330 39.91920 57.22960 13.96520 13.90890 38.76210
1470 14.34160 64.07360 58.73300 23.00260 30.21140 46.20450
1471 11.65550 72.09540 62.93510 28.16630 37.93150 54.74620
1472 0.000000 90.26600 65.04720 39.98390 57.91590 62.97690
1473 20.10610 88.23040 70.75930 41.17130 56.96290 72.69390
1474 48.84930 68.44280 62.21320 32.06800 37.72110 54.77400
1475 47.91000 69.63110 68.51490 34.28680 39.64930 65.03220
1476 56.10030 73.61140 84.35020 45.34690 48.71860 98.81710
1477 64.33370 76.97480 84.65650 51.50400 54.58000 101.5570
1478 31.95140 31.83520 37.89150 9.495930 9.183650 18.06560
1479 45.57240 30.46960 44.98170 13.35050 10.95630 24.89720
1480 91.14000 38.19070 44.41930 36.71660 26.85250 29.99390
1481 100.0000 39.54600 48.57160 44.29820 31.81210 35.83150
1482 61.16380 11.56150 4.823840 12.07840 7.829660 6.782790
1483 71.98420 13.18640 8.371600 17.83770 11.34350 8.185280
1484 74.77390 13.29700 74.84620 31.49200 19.13640 69.97620
1485 74.71610 18.74900 90.65340 39.55450 24.98660 108.2450
1486 60.30770 11.47740 60.82550 20.01670 11.95420 44.20560
1487 78.74490 20.40130 67.96940 32.03020 20.18080 58.81180
1488 20.72420 27.01740 19.15020 5.349940 5.849560 7.619590
1489 27.87000 24.74920 17.59600 5.728940 5.628530 7.134190
1490 28.83030 31.31380 16.54480 6.864660 7.564040 7.581640
1491 76.75870 29.69770 43.62120 25.81620 18.26200 26.50040
1492 84.17720 34.69390 45.72990 31.48860 22.73370 30.36510
1493 46.22850 19.77180 22.95190 8.811970 6.655710 9.226100
1494 47.78180 26.38390 25.67040 10.70730 8.676160 11.08300
1495 54.23730 48.21020 26.28480 18.14390 19.41830 15.48720
1496 67.48540 75.72710 34.72910 35.91340 44.56080 28.40730
1497 78.15880 77.06610 38.36640 43.94110 50.24020 32.99560
1498 93.24000 91.87290 40.57460 63.37980 72.92970 40.34040
1499 37.96480 37.48810 18.35960 9.927400 10.91620 9.378870
1500 48.80580 51.93170 29.74540 18.03610 20.88150 17.62420
1501 52.73880 59.84510 31.38690 22.67540 27.42900 20.58800
1502 11.20160 13.78310 24.07620 3.637780 3.101660 8.036460
1503 6.817220 11.27050 25.22350 3.425740 2.764290 8.254070
1504 32.51080 19.90240 36.62430 7.606260 5.874130 15.79360
1505 38.20640 17.11330 83.50600 22.08680 14.03320 84.93710
1506 37.73330 45.31300 84.65150 28.24700 24.53970 91.17380
1507 25.83610 41.21830 57.78620 14.94430 14.94950 39.85820
1508 30.20990 65.00120 74.14520 30.08620 34.62470 72.59060
1509 44.40630 69.35570 74.76530 35.38890 40.17070 75.99420
1510 40.32320 35.01690 34.72000 11.38360 10.99590 16.54640
1511 48.40030 40.43470 41.81620 15.84440 15.17750 23.39670
1512 53.67020 42.38490 47.21940 19.05470 17.67110 29.46320
1513 59.49150 47.77130 57.16660 25.48990 23.38220 42.99890
1514 27.58370 17.55510 19.58300 4.941450 4.154820 7.024880
1515 30.66440 17.48620 23.94250 5.733380 4.584090 8.763100
1516 39.72640 14.08280 44.83010 9.863730 6.487170 22.77470
1517 63.95260 10.40470 54.24910 20.00010 11.86090 35.08570
1518 68.11540 10.06300 80.28210 31.14000 18.37130 80.74700
1519 38.14390 25.50980 69.19660 17.30820 12.26640 56.64640
1520 46.00550 28.06560 91.59150 29.85360 20.67890 108.0490
1521 77.56310 56.17580 92.27760 51.54190 43.35430 118.8020
1522 86.95530 79.18730 94.60500 70.07160 68.27770 133.3830
1523 0.000000 28.17030 11.11110 4.524400 5.668030 5.801960
1524 7.497300 27.19840 14.69730 4.455350 5.376060 6.344660
1525 9.904110 41.75390 70.64170 18.26020 16.90340 59.62260
1526 12.34690 53.87960 79.01630 25.60630 26.55050 79.11450
1527 0.000000 44.53210 57.28560 14.95520 16.12820 39.33950
1528 8.539300 50.57510 57.96870 17.34670 19.98870 41.74010
1529 13.15640 56.78100 75.42340 25.91910 27.71870 72.80880
1530 35.57740 73.82490 79.25420 37.47900 44.17010 85.58680
1531 21.54110 49.59480 41.86350 13.57280 17.39380 23.75340
1532 28.83340 61.39070 57.39610 22.76850 28.48320 44.03670
1533 41.25760 61.62280 56.52580 24.91970 29.63790 43.70200
1534 37.63880 53.08160 50.55730 19.15360 22.05590 34.54340
1535 48.98280 64.67710 55.24900 28.04510 33.01610 43.52360
1536 54.27060 67.56250 64.26510 33.56420 37.72870 57.73860
1537 63.82590 77.79920 65.81320 42.98190 50.37320 64.45420
1538 69.39800 89.18690 74.06100 55.80570 66.38010 83.04500
1539 19.27160 14.23200 5.706390 3.349620 2.953800 4.432370
1540 36.23740 8.911370 27.51210 6.394460 4.283190 10.07250
1541 35.31620 7.838410 32.34170 6.719770 4.418800 12.54910
1542 52.14870 23.44640 86.22780 27.90700 18.34730 93.44000
1543 61.50370 33.28430 94.04800 36.58040 26.28000 117.3660
1544 24.94770 10.84030 37.47820 5.898650 4.086140 15.54540
1545 32.60460 8.117530 36.94660 6.872270 4.489890 15.55210
1546 37.04780 9.028670 63.71880 13.80000 8.377360 46.86290
1547 48.84430 17.30130 75.64470 21.52200 13.50200 69.05800
1548 47.80880 38.97150 80.96010 27.10630 21.26400 82.40620
1549 52.25810 38.83410 73.63210 25.30510 20.04790 67.73160
1550 24.64240 34.93820 42.19970 9.801090 10.12570 21.57540
1551 22.60210 40.71140 47.79770 12.70710 13.33240 28.28320
1552 24.34770 42.69770 54.48500 15.10400 15.35230 36.13700
1553 78.41300 44.09320 55.45660 32.75320 26.35220 41.96890
1554 90.96840 59.34860 55.71710 46.20820 41.03260 47.25680
1555 35.53260 25.44520 21.68690 7.317970 6.680310 8.729000
1556 39.54970 24.79650 24.39430 8.295450 7.038710 9.798230
1557 92.13270 42.81690 29.78020 36.54860 28.40850 20.32000
1558 100.0000 56.52960 30.42490 46.79030 40.00130 23.99770
1559 92.84260 53.23350 34.37470 41.24160 35.49150 25.10160
1560 93.89930 68.32920 39.59730 49.07810 47.74970 32.79130
1561 39.32800 23.02090 0.000000 7.169510 6.144590 5.831990
1562 45.23760 23.17570 6.183490 8.267530 6.885620 6.220590
1563 49.79430 24.55770 13.34070 9.761940 7.907620 7.425680
1564 51.06060 56.58870 57.82550 25.71410 27.35350 45.22600
1565 58.17080 64.67560 61.97640 33.02850 35.79890 53.88960
1566 72.51500 75.99890 70.81810 48.08640 51.89680 73.57100
1567 84.45090 79.65910 83.18570 62.27540 63.02720 101.3440
1568 85.59430 80.73500 89.65840 67.19820 67.10120 119.0310
1569 27.15480 7.685680 29.94270 5.168050 3.534200 10.97300
1570 25.40980 0.000000 34.51430 5.297880 3.364930 13.51410
1571 68.16850 20.64550 34.29170 17.74990 11.93960 17.09610
1572 87.20680 20.24560 35.90240 29.39430 18.80020 20.40170
1573 92.66840 25.15600 63.91960 40.20020 25.75320 53.43430
1574 54.71540 13.46370 48.25740 14.75980 9.159560 27.67040
1575 55.41260 90.46950 71.54690 50.25010 63.51730 76.79170
1576 8.092400 18.96090 30.06130 4.482610 4.084120 11.01260
1577 0.000000 16.71220 42.09100 5.843670 4.531180 18.90170
1578 9.247010 15.68520 53.74160 8.462380 5.796640 31.38910
1579 12.64750 52.23140 82.92790 26.75760 26.52610 87.62170
1580 13.20830 60.27180 84.14420 30.64270 32.78620 92.33600
1581 45.15650 61.27670 91.14730 39.76390 38.82790 113.5590
1582 93.86430 85.32990 92.34820 77.20170 76.69490 128.6950
1583 21.11640 26.91800 12.74520 5.024710 5.606320 6.021570
1584 25.95700 32.85050 12.07820 6.670440 7.915640 6.939330
1585 76.52550 40.85010 11.75730 25.11640 20.93970 12.31210
1586 75.90280 41.75060 19.96040 25.44410 21.36780 14.15560
1587 36.30080 14.90020 13.18940 5.656090 4.345560 5.877040
1588 50.63000 16.32280 12.12820 9.015610 6.398490 6.666110
1589 54.89010 14.79880 6.065260 9.993350 6.819290 6.320530
1590 65.07140 44.74220 36.48020 21.69660 20.18580 21.60990
1591 69.67470 51.39690 47.30150 28.36050 26.82210 33.52760
1592 78.74590 53.23270 46.33450 34.31190 31.29970 33.90050
1593 88.73340 69.49680 64.45800 52.17540 50.07450 63.00550
1594 92.59380 86.00320 65.43650 65.20590 69.38820 69.61680
1595 20.98890 49.25330 17.87510 10.90420 15.88160 10.83450
1596 23.95420 73.42100 21.00210 22.00490 34.89890 17.91180
1597 34.07240 77.84290 50.19440 30.57870 43.17150 40.69950
1598 38.50130 85.90690 55.14800 37.44160 52.73600 48.94920
1599 51.59910 64.88090 46.47200 26.95560 32.57780 33.68430
1600 62.87520 64.26310 52.58170 32.49560 35.27360 41.23390
1601 77.94740 69.31670 56.14920 43.11110 44.74980 49.03000
1602 90.78330 69.29070 58.97930 51.74050 49.82830 54.16000
1603 47.99110 34.83130 28.66370 12.60000 11.67590 13.62790
1604 58.73990 45.42040 38.93960 20.45510 19.61450 22.78700
1605 58.03860 56.93020 46.06650 25.53400 27.37870 31.70160
1606 64.98040 70.21200 53.84620 36.99900 41.20950 44.62230
1607 80.80590 77.20890 72.89140 54.13880 56.22230 78.49150
1608 82.91830 83.08660 76.77420 60.80010 64.50420 88.77000
1609 88.04120 84.82210 81.53490 67.27750 69.88620 99.91230
1610 31.10130 34.45650 37.31720 9.837720 10.04170 17.87600
1611 30.35750 34.68320 43.06850 10.66280 10.49350 22.54550
1612 28.68790 43.62490 45.75890 13.35270 14.91370 26.85450
1613 28.23010 48.99970 48.69130 15.67940 18.39290 30.95770
1614 36.65510 51.74500 55.36500 19.55380 21.78450 39.51110
1615 37.99400 58.17150 60.85260 23.88400 27.20390 48.98260
1616 37.58930 69.94800 64.05960 30.36380 37.66920 56.68480
1617 83.98430 71.89640 68.21550 51.52180 51.41760 69.19710
1618 14.07590 0.000000 20.79500 3.014110 2.143330 6.460920
1619 13.59950 9.673890 20.20200 3.213790 2.582040 6.473650
1620 10.73300 6.987320 68.36050 12.45340 7.501090 53.24240
1621 9.334980 14.71170 93.67570 24.51310 15.88430 111.0120
1622 8.561460 41.10530 92.51470 28.37610 23.46770 110.0100
1623 58.27580 56.46830 92.23900 42.61380 37.99340 116.3820
1624 58.42650 65.14800 92.11180 46.26570 44.56300 117.8880
1625 64.94770 70.90430 93.88500 52.35620 52.29080 126.1800
1626 78.11500 83.24670 93.41120 66.70740 69.18170 130.0880
1627 83.86820 92.14790 96.80330 77.87180 82.91330 143.3570
1628 50.65140 42.00250 0.000000 13.99560 14.60340 9.121470
1629 63.84440 53.21580 0.000000 22.19840 24.19230 12.84200
1630 85.43280 73.37710 0.000000 43.27890 47.16680 20.48310
1631 88.97970 88.76150 30.45630 56.91610 66.79880 32.44730
1632 1.152070 0.000000 0.000000 2.306940 1.776230 3.923510
1633 8.567080 6.875530 10.38230 2.500680 2.078930 4.227260
1634 20.67390 5.902170 50.94770 7.881260 4.931450 28.59780
1635 19.76730 11.86480 58.56770 10.15350 6.352260 37.73100
1636 40.83030 7.990370 49.55350 10.84200 6.665960 27.86510
1637 44.28160 38.79900 49.63780 15.94940 14.66620 31.22260
1638 51.09040 46.48220 49.42480 19.95060 19.60630 32.65920
1639 75.14040 45.35660 59.95210 32.66510 26.90830 48.28120
1640 89.64820 57.69400 65.03920 47.46360 40.93180 60.69520
1641 59.91040 34.02220 49.70040 19.98310 15.54420 31.78450
1642 70.21840 32.83190 63.10210 27.14590 19.66050 50.43170
1643 71.57690 68.00600 72.36860 44.08090 44.70460 74.26140
1644 83.01750 68.09090 79.18360 53.28930 50.24340 89.09810
1645 91.16020 71.05090 87.60590 64.32180 58.76550 111.7210
1646 47.16500 25.56190 35.91880 11.51750 8.980660 16.64950
1647 74.99430 32.08450 49.60340 26.41920 19.13470 32.95900
1648 84.66720 45.13600 63.89630 39.08510 30.44440 55.39960
1649 83.79990 50.77850 70.88310 42.91720 35.03960 68.32600
1650 84.15210 52.19500 91.38410 53.11260 42.39230 115.6520
1651 91.80870 63.35210 93.89460 64.82450 55.31160 127.3360
1652 46.58010 68.91250 47.51620 27.82030 35.49690 35.73080
1653 48.40720 77.86860 55.77160 35.18550 45.69310 47.84300
1654 50.75070 92.88390 62.30130 47.49120 63.94220 61.88250
1655 16.81900 27.87190 37.91150 7.075400 6.970320 17.05340
1656 35.08250 40.29200 46.05060 13.46430 13.86320 26.57920
1657 38.82360 45.39180 53.15210 17.39040 17.94290 35.85620
1658 72.07880 84.18920 60.47340 49.38630 58.53710 58.55210
1659 90.71210 94.14280 59.75900 67.47260 76.98070 62.32090
1660 49.76450 81.47290 0.000000 31.64560 45.93300 19.25150
1661 79.27190 84.90600 9.801940 46.93180 57.66500 23.70200
1662 86.93450 92.11060 14.42270 56.50250 68.84880 27.22240
1663 100.0000 92.80110 66.40200 75.00910 80.27140 73.73080
1664 100.0000 93.83460 82.80670 82.19650 85.48500 106.6100
1665 37.08410 13.35590 19.12190 6.163070 4.456530 7.066980
1666 39.18010 6.754270 18.10510 6.285310 4.149600 6.823250
1667 78.01490 7.888120 45.12420 24.55120 14.84680 26.81610
1668 100.0000 13.46840 47.08240 39.84390 24.24770 31.36710
1669 100.0000 15.25800 68.42640 45.94630 27.88150 61.70100
1670 70.52390 9.491210 50.22570 21.20410 12.87280 31.57900
1671 79.40400 7.549930 56.11330 27.77610 16.63150 39.53840
1672 91.40600 42.81290 60.88900 42.01290 31.44290 51.13290
1673 8.522460 32.74990 15.63040 5.505850 7.215270 7.169870
1674 10.06240 42.44200 30.35050 9.464240 12.29900 14.35040
1675 9.650760 54.21470 42.23940 15.23940 20.38800 25.06690
1676 0.000000 89.33110 84.07130 47.00430 61.64730 100.2930
1677 11.33810 95.50620 83.85850 51.14340 68.71300 101.1730
1678 0.000000 69.24470 63.05500 26.61240 35.31800 53.90640
1679 48.67040 74.23540 63.27770 35.34660 43.33620 57.57090
1680 42.16340 53.09370 44.38740 18.78480 21.83890 27.93360
1681 42.12090 61.27300 47.80840 22.97630 28.34650 33.77330
1682 48.44910 93.27160 49.25900 43.89290 62.24950 45.11110
1683 19.04930 51.83580 9.116520 11.26310 17.14420 9.655980
1684 26.51190 59.90220 9.383970 15.33990 23.32920 12.04490
1685 36.98900 92.64570 11.52030 36.16730 57.52130 22.15400
1686 56.46690 92.99830 13.95250 42.07760 61.14660 24.14660
1687 48.84760 81.22660 29.49870 32.54330 46.33320 25.41320
1688 52.44270 81.17510 88.30190 51.00650 57.56970 112.2250
1689 16.85000 91.38640 45.02760 35.90230 56.17060 38.24740
1690 34.40340 93.49330 73.27860 47.47790 64.46890 78.99090
1691 51.49930 92.19970 78.22130 53.21820 67.06140 90.85060
1692 64.55060 91.63340 77.89330 56.54380 68.50640 91.37040
1693 54.49740 72.72480 77.76440 41.69320 45.96710 84.84930
1694 74.23800 81.36750 78.36820 55.63200 60.35300 90.56270
1695 74.78800 78.40240 68.06680 50.05160 54.79040 69.99650
1696 79.14030 85.00500 69.87930 57.07610 63.67810 74.73640
1697 98.88490 95.05420 75.68820 79.69910 84.97230 91.29180
1698 11.50910 2.448870 7.130790 2.450480 1.891870 3.977130
1699 6.784000 12.04100 11.91950 2.791390 2.502830 4.763360
1700 11.44550 13.00260 8.794950 2.843230 2.607500 4.259360
1701 14.45380 14.22960 5.402960 3.046480 2.790340 4.345750
1702 25.85350 16.80550 38.94040 6.649240 5.012290 16.97340
1703 25.20570 29.34450 60.32810 12.91860 10.53560 41.81660
1704 65.78640 67.10380 62.56620 38.26940 40.10080 56.52830
1705 54.85130 58.14890 54.30490 26.75060 28.70780 41.28650
1706 56.11470 72.62890 62.99130 36.52000 42.56660 57.54600
1707 23.51000 17.10700 3.965050 4.012770 3.605250 4.718610
1708 69.24970 60.04420 11.95620 27.50830 30.34710 15.62040
1709 84.48830 83.24680 12.34720 49.07380 57.76570 24.11650
1710 93.50210 85.16470 4.813020 56.10550 63.38280 24.94160
1711 76.14960 61.65790 24.33540 33.05030 34.52950 20.14440
1712 88.82340 69.36550 35.21070 45.58760 46.29200 29.62640
1713 91.60330 81.45690 50.98550 57.36080 61.29280 48.19740
1714 26.99900 54.87400 25.67360 14.22730 20.22050 14.98050
1715 25.49730 60.99340 42.04320 18.77430 26.06840 26.78660
1716 46.55400 82.58190 52.52330 36.78970 49.90680 45.14560
1717 61.43970 81.87080 58.00040 41.70420 52.30520 53.29060
1718 84.60040 83.27680 58.25300 55.65350 61.65500 57.10370
1719 93.67980 83.84440 83.99860 71.44300 71.55740 106.3360
1720 57.71090 40.71500 50.29170 20.84160 18.05090 33.08460
1721 71.96260 40.53190 68.36440 31.98450 24.64960 60.82620
1722 81.41420 44.46970 83.59760 44.81260 33.79680 94.07280
1723 80.55550 53.61270 85.00180 48.31720 39.93440 98.86330
1724 49.44220 5.026990 23.73020 8.700080 5.505720 9.182130
1725 56.60720 10.64010 26.98050 11.16080 7.192520 11.27900
1726 57.86880 8.240820 36.61590 12.73110 7.923300 16.98890
1727 58.29050 6.457610 46.25570 15.35310 9.113970 25.65070
1728 65.04360 15.19100 72.13160 25.10790 15.46000 63.66750
1729 55.29780 19.22660 59.69580 18.12100 11.64910 41.84070
1730 66.80900 24.16860 92.08880 36.27760 23.92590 111.1640
1731 75.33780 35.77410 94.14020 44.56110 31.68930 119.4910
1732 30.56740 17.29070 64.59300 14.27050 8.950920 48.16480
1733 33.31340 49.16040 85.52330 28.98420 26.40150 93.65350
1734 37.26980 63.05390 88.33000 37.32670 38.34100 106.0390
1735 47.27280 74.79930 93.36340 48.76650 52.47640 124.1030
1736 8.204750 17.70100 24.52950 3.835460 3.595880 8.211190
1737 8.308150 14.83790 36.39700 4.879800 3.801560 14.73310
1738 8.719480 11.24070 38.23040 5.046950 3.553040 15.69780
1739 10.18990 33.06050 55.38190 11.39850 10.42930 34.91740
1740 8.003830 31.71810 61.08560 12.73930 10.91770 43.06830
1741 34.92160 35.29610 62.22940 16.32420 13.96240 46.44310
1742 40.84580 42.92980 68.43170 21.54230 19.29260 58.12600
1743 59.41620 80.96430 71.09880 44.62720 53.49640 73.96790
1744 64.84070 94.38230 73.20060 56.36330 70.41190 81.83250
1745 8.539820 26.50180 19.31200 4.568440 5.316750 7.343580
1746 7.617460 27.01070 25.54660 5.097740 5.724990 9.589770
1747 13.83350 26.51680 26.98080 5.338760 5.721420 10.20030
1748 8.564510 77.67340 28.16580 24.18960 39.20240 22.04160
1749 12.64660 82.97820 69.97960 37.06390 50.69120 69.68650
1750 12.35160 85.18050 77.76890 41.68680 55.25560 85.81030
1751 59.94400 85.10890 94.09360 58.23500 65.41950 129.5300
1752 42.81440 26.56260 32.18180 10.05820 8.362520 14.12910
1753 52.56740 32.89790 31.48570 13.79890 11.85430 15.09380
1754 78.21520 36.73980 38.28760 27.45050 21.07650 23.30770
1755 52.34920 23.35360 31.01910 12.10580 8.912620 13.74740
1756 59.96290 34.29560 44.47450 18.78850 14.88380 25.75360
1757 64.40790 36.66330 57.41710 23.29530 18.37220 41.45940
1758 71.05340 43.96090 92.99460 43.76960 33.70780 118.1780
1759 73.27900 60.67010 93.54130 51.66370 45.84290 123.0020
1760 7.795600 9.535590 17.36690 2.862720 2.397080 5.610280
1761 4.496020 3.852900 17.97240 2.727960 2.077700 5.784730
1762 67.08180 18.20120 22.39580 15.80930 10.58360 10.80630
1763 75.62790 28.26980 26.85730 22.74670 16.23700 14.62390
1764 91.15890 28.34360 35.43220 33.22540 22.41350 21.27880
1765 91.67010 71.39940 94.39830 68.69000 62.21670 130.8210
1766 15.72310 6.807430 19.97400 3.222670 2.455940 6.428270
1767 17.81180 10.81070 17.59850 3.370370 2.738260 5.927920
1768 28.40740 17.78630 85.57840 21.76550 14.09690 90.68890
1769 39.70400 36.71690 92.73810 30.84320 23.57390 112.4000
1770 38.74880 49.99070 93.71630 34.98960 30.80440 116.9440
1771 35.60320 45.96240 45.66940 15.17980 16.85170 27.25510
1772 56.73340 62.93730 46.64790 27.99950 32.20610 34.11800
1773 75.16090 74.89460 46.07820 42.15790 47.72940 38.78570
1774 75.69860 94.15330 70.20970 61.68910 73.52190 78.01660
1775 82.91520 100.0000 94.52950 80.77300 89.45410 137.1210
1776 25.52450 30.93450 30.24690 7.402960 7.764840 12.77620
1777 35.62580 31.97150 28.96090 9.096210 8.970780 12.70200
1778 35.76510 31.20620 35.47710 9.598870 8.961070 16.22210
1779 41.98140 29.44970 37.67800 11.07290 9.501340 18.06510
1780 41.00420 92.32420 39.74420 39.29060 58.99520 34.60830
1781 56.54880 93.32790 55.25320 47.70950 64.36320 52.31290
1782 25.53460 39.78980 32.47350 9.707550 11.58330 15.35590
1783 23.40910 52.61480 49.06040 16.42110 20.41780 31.98580
1784 37.34970 78.58350 88.52050 45.63610 52.98000 110.4250
1785 42.18060 88.77020 93.43750 56.26970 67.19440 127.8780
1786 6.019580 20.76900 23.38160 4.071160 4.123730 8.048790
1787 47.08940 18.06980 36.73280 10.74360 7.421730 16.83540
1788 90.11180 23.97290 47.33890 33.81890 21.89750 31.50820
1789 94.80420 34.74690 53.37350 40.22160 27.86320 39.58170
1790 18.55710 5.480980 5.688920 2.799450 2.230560 4.156880
1791 15.23110 2.548690 12.56420 2.730120 2.041320 4.608510
1792 10.17200 48.85600 12.53120 10.35260 15.27370 9.582320
1793 15.55080 63.21710 16.93550 16.12310 25.67530 13.99030
1794 29.32560 79.16180 17.03760 26.03830 41.32630 18.97260
1795 54.27710 79.38540 36.02100 34.01370 46.03050 29.36450
1796 70.00180 93.16670 38.31660 49.54030 65.75230 36.67120
1797 65.36180 45.42220 15.71630 21.77930 20.31780 12.51490
1798 66.62420 53.31770 11.05430 25.04550 25.50290 13.55950
1799 74.43800 58.34250 9.912530 30.00270 31.00760 15.52030
1800 92.68420 17.95520 4.595930 31.16730 19.71110 10.64930
1801 93.18180 17.89200 33.12800 33.01400 20.70640 18.99070
1802 84.42670 12.22820 28.46780 26.08750 16.09610 15.22660
1803 82.53390 13.56700 36.29630 25.92520 16.04490 19.81630
1804 83.80850 12.83750 64.05400 32.76010 19.81260 51.76260
1805 94.24470 7.073650 67.20480 40.84640 24.35080 58.95100
1806 30.06980 10.12520 58.33560 10.94590 6.798790 38.14180
1807 45.75530 9.220330 58.13190 14.18940 8.566440 38.60500
1808 53.42720 8.050830 78.62130 23.50080 14.00020 75.70040
1809 58.39670 9.790580 90.79170 31.51860 19.24220 105.9290
1810 30.60910 13.88840 29.86820 6.003520 4.384240 11.33790
1811 37.18710 20.72490 30.90190 7.873320 6.186880 12.55550
1812 52.10050 43.53820 32.54380 16.53170 16.65120 17.55850
1813 59.47430 54.79010 52.42700 26.82660 27.18100 38.53940
1814 59.14460 54.40800 58.61020 28.18540 27.81940 46.55010
1815 59.03990 62.48690 79.51220 38.80970 38.04970 85.13120
1816 63.11920 62.74880 92.74130 47.87110 44.22420 120.0310
1817 18.96030 36.36810 31.97910 8.136400 9.735850 14.13200
1818 16.82680 35.33620 35.26650 8.210340 9.471300 16.19980
1819 12.85790 56.23000 59.23880 19.46010 23.87060 44.62280
1820 11.93030 58.72020 67.33890 23.72650 27.35530 58.47290
1821 24.97500 58.60030 64.53210 23.14570 27.20040 54.17300
1822 25.53520 71.29620 66.68450 29.99680 38.42580 60.83960
1823 26.12940 81.71830 79.73520 41.19990 52.27000 88.87000
1824 11.14840 6.085510 23.10080 3.201490 2.412590 7.397870
1825 26.87740 6.234850 40.97770 6.476710 4.168460 18.10040
1826 33.61080 11.29750 46.28940 8.778500 5.660320 23.98440
1827 56.20890 20.41280 47.52800 15.60010 10.38590 27.27210
1828 66.59570 30.12070 51.50600 21.60580 15.77220 33.88060
1829 56.21470 38.89200 34.59350 16.76020 15.12510 18.25960
1830 73.32590 50.06100 36.83530 28.22290 26.19410 24.12470
1831 87.93780 52.98060 40.22730 38.45200 33.52080 28.64580
1832 22.19130 13.13970 13.80610 3.711040 3.071310 5.379040
1833 20.15900 14.36980 11.45880 3.487990 3.028700 4.840860
1834 49.63920 14.33270 84.71670 25.39160 15.64800 88.53360
1835 58.25980 21.94460 93.60710 34.20640 22.30360 114.4460
1836 91.16910 46.14810 93.25600 56.95240 42.44550 121.0250
1837 79.79120 36.05200 57.83550 32.22860 23.56490 44.51090
1838 80.47440 38.90010 65.84750 35.64770 26.29150 57.05400
1839 36.85180 37.60050 29.83370 10.71020 11.46440 14.07830
1840 42.87670 40.39900 28.12690 12.59680 13.39040 14.00070
1841 74.48230 58.60260 54.39660 35.68090 34.47790 43.78630
1842 79.78240 66.74920 59.53720 43.72260 43.49490 53.31220
1843 78.48350 72.47770 63.52960 47.11350 49.01960 60.85560
1844 83.89140 59.35480 47.29650 39.73510 37.25140 37.09280
1845 93.79190 70.88340 69.64060 58.13630 54.69170 72.21640
1846 98.50190 94.64680 93.90150 88.25060 90.60870 136.7840
1847 100.0000 100.0000 100.0000 95.76920 100.0160 154.9350
1848 73.90500 62.37440 47.09570 35.28860 36.14830 36.30780
1849 91.24160 73.74750 45.99110 51.20360 52.16460 40.07020
1850 52.60580 31.47460 20.04800 12.47600 10.66360 9.930140
1851 56.21450 49.43210 19.68780 18.60620 20.08850 13.24310
1852 61.03780 54.87780 28.64170 23.64910 25.39360 18.70610
1853 61.29140 54.08200 40.50960 24.91400 25.81800 26.13120
1854 70.95580 52.12860 42.81970 28.44000 27.22550 28.90450
1855 71.61390 57.55980 63.97300 36.27620 34.31530 56.74350
1856 74.57970 59.75570 78.48250 44.11710 40.02810 84.44800
1857 31.00320 27.29340 36.47890 8.305130 7.448720 16.35700
1858 40.60020 40.10260 35.18030 12.79220 13.38520 17.92150
1859 42.28500 47.18070 59.30360 20.21090 20.07470 44.04610
1860 47.99800 56.78190 72.02180 29.56170 29.83130 68.03420
1861 51.67520 64.51450 78.89350 36.83170 38.27100 83.65230
1862 32.89990 50.03000 64.28430 20.86120 21.77950 51.95700
1863 36.02550 94.19850 78.93950 50.84480 67.22500 91.44140
1864 22.20900 43.21360 38.47390 11.62940 13.60880 19.90820
1865 54.06860 67.04050 40.18830 27.57960 34.10330 28.46220
1866 62.47810 68.04010 39.62550 31.63490 37.15350 29.29840
1867 18.44780 20.65380 12.70810 3.967110 4.012210 5.394310
1868 26.95140 19.54850 24.19650 5.394900 4.682200 8.761340
1869 24.78010 18.13920 26.35010 5.175010 4.366330 9.579020
1870 23.27990 91.76520 31.26740 34.58820 55.74060 28.05740
1871 46.36250 35.16520 10.86230 11.28660 11.14710 8.175670
1872 65.16790 34.01640 14.43520 17.08550 14.25960 10.17450
1873 65.69250 69.01440 25.62900 30.67430 37.30980 21.42490
1874 7.409900 43.00580 21.54210 8.821660 12.21410 10.60640
1875 6.095750 49.71890 29.97060 11.76120 16.42690 15.61070
1876 6.008930 75.61510 44.79040 25.51720 38.77250 33.12710
1877 11.67440 85.13850 62.74940 35.84730 51.45070 58.04600
1878 0.000000 0.000000 0.000000 2.307280 1.775380 3.923230
1879 7.854530 4.222820 2.259090 2.373500 1.894760 3.971420
1880 21.38560 5.992260 92.60020 24.59470 15.26620 109.1740
1881 18.60030 19.55970 90.97610 23.90160 15.73700 103.4730
1882 57.34950 49.27470 92.04470 39.36250 32.88070 113.9780
1883 20.32260 27.11670 5.480110 4.888770 5.599230 5.462310
1884 37.36500 32.76160 7.433130 8.356630 8.752870 6.806680
1885 36.85870 39.48440 8.481250 9.943480 11.67560 7.889310
1886 36.49220 62.97650 29.32760 19.74280 27.65470 19.47770
1887 38.13080 86.85050 81.59810 47.38830 59.68250 95.12420
1888 16.50360 38.57300 49.26790 11.79700 12.13390 29.43800
1889 16.08420 49.47210 62.17800 18.05480 19.96820 48.08240
1890 22.06860 48.88570 75.77710 23.72020 22.82170 71.56880
1891 30.10980 4.314830 26.45420 5.217810 3.464900 9.303960
1892 74.28500 11.26120 34.57570 20.94970 12.92830 17.74220
1893 81.79130 11.22390 41.38680 26.03200 15.89960 23.37820
1894 88.36380 31.50530 57.07120 36.16630 24.59840 43.65890
1895 87.35050 86.73790 91.69130 73.33300 75.55580 126.2530
1896 86.29680 95.81080 92.08150 78.78430 85.47360 129.8250
1897 29.87900 50.09980 16.09300 12.18230 16.86210 10.96440
1898 42.83020 74.37660 19.82470 26.06340 38.02110 18.87730
1899 72.10080 85.51310 50.52550 47.77990 58.51470 46.83870
1900 72.24210 93.27690 50.99020 53.25750 67.89690 49.42620
1901 30.33500 46.35220 23.93450 11.51470 14.97070 12.61070
1902 42.14970 55.11290 37.83530 18.66100 22.98090 22.90560
1903 44.56180 61.28960 38.38760 21.86080 27.72980 25.07060
1904 45.47720 74.70010 41.23630 29.33950 40.18540 30.97940
1905 50.93020 89.56320 41.13270 40.46400 57.56500 35.82400
1906 47.74120 79.83750 62.92840 38.38310 48.88120 59.18320
1907 47.58990 94.54110 71.68400 50.92540 67.40450 77.29670
1908 34.12610 56.51920 55.58960 20.98440 24.78300 40.96480
1909 60.87690 60.84910 65.03340 33.33900 33.82690 57.94330
1910 93.90640 64.45950 66.84290 54.05330 48.48610 66.02970
1911 37.02310 9.301510 6.908900 5.332840 3.773750 4.922900
1912 41.98990 3.801600 11.96510 6.633410 4.238220 5.690810
1913 50.82430 7.726210 19.15650 8.910690 5.749110 7.925050
1914 63.81580 30.77730 67.75690 26.47910 18.32480 57.23180
1915 19.11450 24.26310 23.25820 5.034060 5.189760 8.523250
1916 17.47530 24.29530 31.06170 5.620420 5.502310 12.08400
1917 24.01270 25.73780 47.48660 9.078440 7.620550 25.74940
1918 22.13490 40.09260 78.20090 21.43190 18.51940 75.58060
1919 13.66620 38.97490 61.51560 14.76050 13.95040 44.87990
1920 32.25270 38.56580 60.68110 16.09330 14.69590 44.57290
1921 75.91840 38.46180 74.15380 35.91430 26.36950 71.26410
1922 83.79290 43.79150 74.28990 41.98230 31.81180 73.70780
1923 34.15020 17.08540 42.34120 8.460490 6.004070 20.21710
1924 33.18490 53.76760 43.74150 17.14950 21.42290 26.88790
1925 35.26750 63.41640 47.67650 22.58660 29.45650 33.98930
1926 67.55620 62.98180 60.57190 35.12170 36.56760 52.97390
1927 73.43160 71.66630 65.88930 44.55780 47.09420 63.88760
1928 26.86580 28.80420 20.26960 6.328720 6.705510 8.158150
1929 54.75910 39.17090 16.84920 14.96890 14.25300 10.49700
1930 93.50390 37.92130 22.16150 35.44650 26.24370 15.99430
1931 92.92600 74.12390 31.20600 50.23560 51.87820 28.49490
1932 34.22370 27.26550 42.79560 9.760880 8.241100 21.40220
1933 40.26470 31.98320 44.80140 12.38720 10.77250 24.37190
1934 44.60890 50.87840 56.70870 21.59320 22.58740 41.95280
1935 50.21120 51.68660 63.34810 25.36740 25.04750 52.33490
1936 75.97990 56.58430 82.21350 45.34900 39.25360 92.01550
1937 71.51010 27.40500 31.18480 20.67340 14.86750 16.30360
1938 83.32400 35.08690 34.09240 29.21720 21.58060 20.53260
1939 84.82830 43.81240 32.57240 32.37070 26.29590 21.27880
1940 58.76810 32.35380 30.96900 15.95170 12.86430 15.31190
1941 60.32380 77.21250 32.98310 34.57110 44.49380 27.07890
1942 14.63360 20.46110 64.01110 12.08420 8.368840 46.24810
1943 10.96740 33.18560 77.95400 19.15340 14.99290 73.28840
1944 9.476580 41.02670 77.83110 21.13180 18.56490 74.50300
1945 11.98170 39.77620 84.45190 23.79480 19.81130 88.68420
1946 6.105800 19.41890 80.23070 17.77680 11.71200 76.56370
1947 16.53270 24.18150 82.93500 20.12010 13.75380 83.50110
1948 34.31500 93.17660 90.59970 55.60270 69.83700 119.5290
1949 19.44130 31.03450 29.26490 6.639730 7.356560 11.92820
1950 17.42950 29.29700 43.89170 8.653830 8.025730 22.27290
1951 14.13990 54.58940 52.93280 17.29790 21.89760 36.23440
1952 13.89360 75.36420 71.52910 32.87220 42.76300 69.83670
1953 7.532310 78.65180 93.31650 45.34370 53.51080 122.3980
1954 26.35850 23.16050 54.17510 10.50180 7.997960 32.99660
1955 47.62210 26.88760 78.31300 23.44520 16.06230 75.54210
1956 54.04870 36.26880 94.25210 35.79080 26.48800 118.5200
1957 4.531570 11.12170 15.73550 2.855660 2.466120 5.346950
1958 9.687110 15.45150 12.53020 3.040480 2.910010 4.932440
1959 13.72250 17.32720 4.731190 3.286340 3.261100 4.525690
1960 93.76840 52.10610 11.10220 39.61630 33.91260 16.17270
1961 94.28380 58.46340 8.620320 42.22800 38.26800 17.26020
1962 53.08800 55.97730 9.737840 19.62760 23.69860 12.55090
1963 53.98220 60.21100 49.62250 26.46570 29.75280 36.65300
1964 68.09340 62.61390 82.03030 42.97700 41.01510 91.78080
1965 69.97080 64.05260 91.22150 49.71970 46.24770 116.8160
1966 100.0000 100.0000 100.0000 95.75450 99.99860 154.9290
1967 9.532430 32.60290 29.16750 6.505530 7.771340 12.00010
1968 14.68820 56.30400 38.37670 15.25210 21.66580 22.57620
1969 21.80740 67.79170 40.49170 21.12320 31.05810 27.11720
1970 23.65160 84.47520 50.48020 33.28070 49.57170 42.66400
1971 32.64190 55.14610 9.770850 14.42900 20.56900 11.17920
1972 40.12240 61.21530 9.598410 18.36420 25.67830 13.02770
1973 66.17640 70.20050 6.875450 30.56500 37.76230 17.38260
1974 84.31470 75.73980 42.25900 47.02240 51.12970 36.31210
1975 84.84410 87.61640 46.54040 56.06690 65.30330 44.55440
1976 36.44900 20.69760 6.248770 6.318440 5.304760 5.489260
1977 39.16240 18.48250 19.51320 7.084390 5.480930 7.651040
1978 38.75100 41.11150 89.18620 29.64740 23.97850 102.7230
1979 48.62810 41.12050 90.60230 32.93450 25.93480 107.1790
1980 14.34810 6.273850 76.54940 15.59060 9.352380 68.00640
1981 25.62500 8.567450 76.41480 16.94800 10.03390 68.70680
1982 39.76130 10.39650 74.27010 18.20280 11.03700 65.70770
1983 39.55350 8.021390 83.06460 21.86400 13.24900 84.26540
1984 92.70510 16.46830 92.18320 51.43620 31.96940 113.9740
1985 56.11000 16.56040 36.17530 12.48600 8.366080 16.87780
1986 64.02920 34.49650 41.17700 19.17960 15.47910 23.21760
1987 68.26760 50.65610 61.01560 30.50580 27.72330 50.57520
1988 79.32960 54.32970 68.48400 41.12320 35.68620 64.77900
1989 32.12970 24.27770 16.68600 6.267060 5.869360 6.967060
1990 58.52650 22.08650 13.29300 12.06550 8.885010 7.908190
1991 58.72090 64.51350 15.32050 25.78220 31.61950 16.30510
1992 67.91660 67.24920 15.59790 31.88110 36.55250 18.06770
1993 81.25340 70.61830 74.09390 51.40210 50.30080 79.20020
1994 89.06490 76.16340 78.24020 61.19460 59.76740 90.73230
1995 56.04660 28.96940 5.280410 12.09600 10.12160 7.601510
1996 80.13260 28.46030 12.62640 24.56290 17.36770 10.93490
1997 96.79510 29.84340 9.256600 35.67540 24.30830 12.03360
1998 93.51940 42.85050 8.616190 36.18310 28.22740 13.81330
1999 91.56480 42.09640 41.53190 37.49560 28.56560 27.91880
2000 91.65640 41.77990 51.47040 39.48480 29.55360 38.55750
2001 93.23680 75.78280 67.87660 59.98310 58.95660 70.83010
2002 93.82540 80.94890 74.79600 65.90380 66.10640 84.95490
2003 21.54660 36.45020 40.01310 9.491190 10.47950 19.80010
2004 19.82200 41.94070 41.99210 11.48480 13.08220 22.29490
2005 46.67160 42.73720 49.06040 17.63040 17.01950 31.29140
2006 56.35510 43.20390 61.05340 23.82540 20.61680 47.71660
2007 56.65030 48.69540 68.68080 28.07210 25.21640 60.57990
2008 56.36110 68.33630 72.30530 37.71460 40.79400 72.43190
2009 62.60080 73.33320 73.27330 43.46610 47.03890 75.78690
2010 62.26680 94.68540 90.57170 63.70610 75.69830 122.1840
2011 28.64570 73.75380 40.81100 25.13500 36.96710 29.35730
2012 29.39460 84.94630 44.87540 32.99560 49.67290 36.60510
2013 62.76110 85.39790 51.99060 44.49740 56.27620 47.05550
2014 71.20660 36.78340 21.81630 21.45940 17.62020 13.33130
2015 82.31890 57.41900 27.27010 34.98240 33.55890 20.95700
2016 81.89840 90.97320 34.46030 54.14200 66.48110 34.69300
2017 91.36050 92.35660 66.29640 68.57780 76.24510 72.53570
2018 10.98380 9.487200 53.68120 8.204070 5.193950 31.26550
2019 9.966590 59.45820 90.20720 33.39480 34.42010 107.3610
2020 11.58100 59.02330 95.38050 36.86690 36.98390 124.3800
2021 9.353680 21.97040 38.26830 6.044610 5.252270 16.37640
2022 6.016440 26.07900 46.26250 8.038640 7.037910 24.10440
2023 22.71000 57.58990 69.71980 24.16890 27.36090 62.05640
2024 21.43400 76.61060 82.76530 38.91200 47.40410 93.95220
2025 26.77720 90.71290 92.71990 54.12480 67.26640 125.2960
2026 11.62410 33.26080 37.11820 7.720230 8.623620 17.11770
2027 10.84780 44.69560 52.76170 13.99000 15.57700 34.06370
2028 6.903480 64.20880 52.11260 21.76380 29.26820 37.80900
2029 69.65480 63.78940 65.66670 38.45070 38.88100 61.27550
2030 75.45780 64.82680 71.72410 44.36770 42.75220 72.10900
2031 77.45830 71.39090 71.58740 48.90400 49.46140 74.19980
2032 6.700790 25.06040 7.282590 3.950630 4.737610 5.084560
2033 9.509490 30.05550 5.932290 4.752880 6.134470 5.617950
2034 7.993690 30.50450 38.99410 7.455290 7.646380 17.80390
2035 5.767130 37.80570 45.22200 10.20950 11.11270 24.43630
2036 9.088260 63.35470 80.91140 30.49510 34.42850 85.54530
2037 4.982400 72.05690 81.28210 35.03280 42.17300 89.18970
2038 56.20330 38.50510 43.85030 18.14860 15.78830 25.66610
2039 72.43460 45.37180 42.80510 27.16750 23.78040 27.77200
2040 93.51340 51.42640 48.65610 43.29910 35.69620 37.59130
2041 94.82640 65.59170 56.26460 51.98270 47.83820 50.34900
2042 27.67590 15.01130 13.11020 4.470860 3.646440 5.508370
2043 27.05730 12.68200 5.522810 4.117960 3.264900 4.614970
2044 36.67800 23.28870 14.14450 6.837860 6.021190 6.648250
2045 48.40540 37.48250 25.42270 13.01150 12.63200 12.58110
2046 57.52770 69.79910 23.07130 28.33650 36.11740 19.82090
2047 35.59860 44.12050 23.61260 11.62590 14.08660 12.19040
2048 60.96800 43.30750 57.63350 24.87040 21.16710 42.82330
2049 60.97810 54.56390 81.33270 37.44000 33.38120 88.28350
2050 64.46850 54.99160 88.68900 43.15570 37.17040 107.1930
2051 32.28090 29.10020 17.21380 6.995270 7.145320 7.598590
2052 40.37560 34.12400 16.21700 9.672000 9.868910 8.569940
2053 46.43530 78.67790 12.31900 29.18550 42.68040 18.83780
2054 58.20740 85.23810 11.27330 37.31930 52.08960 21.53800
2055 69.55290 93.81540 7.950010 47.38690 64.87550 24.87410
2056 81.01720 94.28530 14.54310 54.61300 69.52370 27.37560
2057 81.82960 91.40510 51.28860 57.53500 68.73230 50.49100
2058 82.95890 93.69150 68.42450 64.60640 74.56740 75.85080
2059 35.28790 41.33710 29.70090 11.33360 12.93820 14.59860
2060 38.84540 47.83300 32.70610 14.45510 17.27560 17.60040
2061 40.53910 56.99230 74.21020 28.43330 29.26260 71.24590
2062 43.17240 62.29490 75.73580 32.08970 34.25130 75.98440
2063 85.93570 73.35140 88.38490 62.18240 58.88380 113.9610
2064 50.93450 7.653330 8.776780 8.513670 5.545790 5.775720
2065 59.51000 12.43870 11.66220 11.51510 7.533170 7.030080
2066 67.04720 8.869000 11.52210 14.69120 9.236110 7.758870
2067 96.41480 11.31600 11.50800 33.28940 20.40870 10.99000
2068 72.64710 11.52580 60.13370 24.98130 15.14080 44.16340
2069 81.88280 9.200250 70.22150 33.53140 20.06640 62.19620
2070 81.26850 24.27510 76.40900 37.04040 23.77600 74.62810
2071 84.16320 32.22150 85.44780 44.07420 29.78340 96.10440
2072 28.02730 8.717840 49.97330 8.584970 5.442490 27.65100
2073 31.22950 74.40400 58.21300 29.99150 40.42020 49.40780
2074 10.69590 52.75350 24.64790 12.11980 18.25520 13.76700
2075 23.52510 53.33580 30.23180 13.82020 19.45210 16.99110
2076 29.08780 65.92800 32.93010 20.16320 29.45980 21.80440
2077 33.61670 84.11300 37.31390 31.88550 48.41650 30.25960
2078 56.95350 85.94680 56.32050 43.27810 56.26220 52.02070
2079 66.28680 94.08540 59.62840 52.40400 67.73450 59.41050
2080 71.64310 93.49120 85.08470 64.86540 75.00050 108.5690
2081 45.15210 54.84320 84.43960 33.35260 31.44890 93.78980
2082 57.69390 72.27070 92.59500 50.32820 51.57230 122.1550
2083 65.36470 92.50290 93.85310 67.62600 76.23640 132.4560
2084 7.375540 18.00130 16.03920 3.406290 3.419100 5.862990
2085 7.649410 20.77170 14.43690 3.597570 3.869920 5.629970
2086 11.33640 55.92590 8.779740 12.55410 19.91710 10.60980
2087 15.30940 74.58880 10.79310 21.62710 35.64650 16.06300
2088 74.66850 77.31410 9.978010 39.48170 47.55160 20.76020
2089 89.39900 79.88340 10.27200 49.89550 55.77320 23.17260
2090 93.83820 74.37390 9.819240 49.81110 52.00780 21.92470
2091 95.58710 76.79530 55.24650 58.19120 58.39520 52.00590
2092 16.13900 3.547760 8.410840 2.714040 2.071990 4.072240
2093 19.37020 7.668060 13.01330 3.191150 2.477160 4.981730
2094 58.25130 9.647880 20.33350 11.36070 7.273750 8.933170
2095 79.40140 8.587240 16.94860 22.22500 13.66490 10.43110
2096 95.32290 8.725520 48.56490 36.71490 22.08970 32.55470
2097 94.52410 48.63550 71.96700 49.71410 38.23990 71.41770
2098 19.65080 13.66340 23.32250 4.009270 3.258800 7.777260
2099 17.34780 11.59750 40.23190 5.600370 3.955300 17.31440
2100 14.99940 70.00320 53.07440 24.42960 34.43360 40.34540
2101 14.41680 77.09750 55.40720 28.87690 41.61960 45.26850
2102 15.46410 86.65810 56.87880 35.34790 52.35060 50.13630
2103 8.707380 56.13080 49.68240 17.57810 22.61790 33.40280
2104 19.58620 66.39560 55.81630 23.50700 31.62210 42.82550
2105 55.82290 65.71600 85.06470 41.73460 42.05350 98.81960
2106 60.69000 72.33770 87.38250 48.40110 49.92740 106.9310
2107 38.76030 78.50820 57.64180 33.54260 45.10390 49.95970
2108 41.91300 87.03350 69.62890 43.50590 57.18370 71.42550
2109 16.72780 47.94530 28.83590 11.46250 15.46780 14.70610
2110 36.24590 47.40330 37.05400 14.24800 16.88600 20.16770
2111 21.85370 22.40690 18.30060 4.699870 4.670210 6.864940
2112 20.18850 20.96890 26.26710 4.962730 4.591390 9.628610
2113 22.55210 77.90750 37.30200 26.49450 40.95270 27.94580
2114 49.32680 77.77470 80.97660 44.38460 51.27330 92.09750
2115 59.92220 79.65640 85.73150 51.42260 56.49260 105.3100
2116 62.31870 84.71600 86.80100 54.95020 62.55460 109.9450
2117 32.04730 7.418680 13.59090 4.774790 3.349900 5.432100
2118 42.38560 10.81380 16.77810 7.131390 4.821390 6.663460
2119 74.67360 28.58040 19.26920 21.77640 15.75940 11.94550
2120 87.11510 50.44780 22.35540 35.16580 30.64380 17.93130
2121 85.54810 65.75860 25.06830 40.72750 41.46470 22.70790
2122 86.18110 79.10650 22.58620 47.96750 54.15090 25.50210
2123 94.16570 91.27500 23.54830 61.39520 71.11070 30.30740
2124 55.86240 68.73480 10.52100 26.42920 34.32200 16.12450
2125 68.98340 83.51960 12.24010 39.75560 52.29110 22.29920
2126 89.76890 94.29730 84.12790 75.92080 82.21790 108.8180
2127 7.920030 13.30640 5.867230 2.764990 2.603630 4.251150
2128 12.15050 8.330590 4.542890 2.658830 2.224120 4.116580
2129 24.03520 9.719590 10.95370 3.665820 2.835790 4.789560
2130 24.17940 5.895620 5.758250 3.461230 2.566700 4.312280
2131 25.85600 19.36190 11.37140 4.557800 4.185080 5.324720
2132 23.92720 23.13660 32.33810 6.251850 5.670700 12.90540
2133 34.39020 32.86740 44.02770 11.21480 10.40650 23.36710
2134 33.98970 44.62820 57.97790 17.33770 17.54200 41.51250
2135 40.87350 57.14820 79.95350 31.12850 31.23850 83.06930
2136 67.31120 66.64950 78.92920 44.95020 43.93210 86.63200
2137 78.38920 67.17290 87.32360 53.97740 50.16240 107.7470
2138 20.25900 5.111860 21.58790 3.575800 2.570010 7.003990
2139 20.20580 9.772120 29.61060 4.412610 3.216560 10.56510
2140 18.25500 14.25050 35.54110 5.159890 3.907420 14.12850
2141 54.68450 43.70300 42.67670 18.85120 17.93270 25.27350
2142 68.10760 51.22560 69.32210 35.04690 30.29710 63.64140
2143 68.33930 51.78800 79.90330 39.33620 33.09620 84.42810
2144 39.41760 38.61890 43.83780 13.38110 13.14060 24.45090
2145 70.13390 37.27910 51.16410 26.81950 20.26660 34.93310
2146 72.29950 40.33530 84.40910 38.87380 28.98310 93.83370
2147 41.31750 50.61850 46.78010 18.30060 20.57600 29.90690
2148 47.38220 58.95390 45.68420 22.77790 26.84660 30.95350
2149 66.03730 64.64010 48.18650 32.17510 35.59650 37.26410
2150 73.02400 78.47280 58.35520 45.76740 52.28900 54.28430
2151 81.55100 87.91500 57.49460 56.79540 65.99290 57.17120
2152 54.11480 35.19330 8.267280 13.56200 12.39940 8.365350
2153 58.41820 40.12380 4.910390 16.32460 15.31280 9.486710
2154 83.16840 69.38990 11.55710 39.97270 42.90070 19.61970
2155 68.17210 56.03170 24.44230 25.85180 27.54730 17.71730
2156 73.56900 56.87830 59.52640 35.73980 33.55020 50.04630
2157 74.03640 62.95000 61.55770 39.38330 39.05930 54.97860
2158 83.67050 67.96350 68.83400 49.48590 47.49000 69.11630
2159 86.04060 92.48290 93.08010 77.35090 82.31460 132.7610
2160 93.54010 91.95900 98.85080 85.82800 88.41610 151.1710
2161 62.47290 70.95850 76.91690 42.22770 45.37710 82.62580
2162 63.52670 79.00550 79.73330 48.67240 54.67230 91.13780
2163 35.69440 49.87040 58.11560 19.36540 20.75220 42.64620
2164 36.16090 58.95990 66.00270 25.32840 28.40540 56.76130
2165 3.521100 34.90400 27.30830 6.973230 8.512080 11.26840
2166 5.546950 36.34500 38.35600 8.507670 9.969090 18.35140
2167 45.36720 40.48120 37.48830 14.34820 14.35280 19.65750
2168 63.97440 39.58020 40.78960 21.73010 18.21280 23.77600
2169 35.14340 22.82860 52.21560 11.30880 8.377370 30.99270
2170 46.45940 27.22590 56.24350 15.51710 11.43080 37.03010
2171 54.59790 31.12190 62.19560 20.44720 14.99060 47.28970
2172 62.20720 39.95520 69.32540 28.14990 22.00270 60.65120
2173 80.09730 62.02290 71.38130 45.56350 42.00660 71.26350
2174 65.43970 41.16950 47.29720 22.76640 19.53050 30.91090
2175 70.23470 49.87120 51.03020 28.68770 26.24990 37.22840
2176 78.29330 54.60620 52.99680 35.90910 32.64330 41.31810
2177 93.60710 53.27990 59.96030 46.85590 38.67390 52.02000
2178 92.60920 52.66310 66.26380 48.13120 38.95240 61.75150
2179 93.78890 75.12150 85.52550 67.12540 63.02010 106.6770
2180 32.66570 31.01010 49.19320 11.51420 10.00940 28.46840
2181 39.86440 30.14240 59.09550 15.34030 12.00710 41.16750
2182 48.05880 31.65140 72.53070 22.14450 16.33530 64.02710
2183 47.29650 42.32530 72.45820 24.56670 20.90980 65.59980
2184 59.29260 55.03270 75.12440 33.98230 31.41670 74.87050
2185 83.00040 61.01930 77.22320 49.19380 43.87430 83.32310
2186 94.22580 66.09730 87.19070 63.73590 55.54790 109.2320
2187 24.85820 34.95000 4.462190 6.824840 8.492900 6.587330
2188 34.26850 49.16350 10.20560 12.25690 16.42590 9.776080
2189 45.14070 68.66540 9.451610 23.03390 32.47170 15.33090
2190 22.61390 31.31350 25.70770 6.650450 7.452620 10.35170
2191 36.37730 41.13830 36.14930 12.29560 13.46520 18.41710
2192 39.75760 42.65050 45.54780 15.10390 15.62260 26.90680
2193 44.64650 49.39930 51.51900 19.67980 20.73730 35.16420
2194 48.82270 59.53450 56.38430 26.00080 29.17450 43.77140
2195 52.17140 62.49870 63.96990 30.37030 33.06770 55.67610
2196 51.93600 83.14910 71.71370 44.24980 54.53080 74.50940
2197 52.56630 84.05620 78.19060 48.04260 57.72450 88.78540
2198 92.51310 87.30390 89.27220 75.83710 77.16220 120.2910
2199 92.80700 8.472580 19.00330 30.88530 18.81290 12.23090
2200 93.26340 6.282610 74.41070 42.67730 25.42880 71.39890
2201 95.08230 6.617130 89.34510 50.84740 30.74630 105.8480
2202 31.70960 32.76190 6.681920 7.346530 8.190920 6.549600
2203 69.41800 47.73920 8.509010 22.86330 22.20800 12.23140
2204 74.36720 51.33280 30.74960 28.69710 27.11570 20.76840
2205 86.73340 59.52430 36.07190 39.84070 37.53680 27.38920
2206 89.31740 64.40070 59.45600 48.41730 44.94240 53.77800
2207 65.54960 47.54360 53.33980 27.38040 24.15040 38.54320
2208 65.24010 82.70680 64.83920 46.07000 55.43530 64.12490
2209 14.29960 22.85220 15.65010 4.128050 4.476480 6.152330
2210 11.85050 31.69920 92.47930 26.25310 19.51810 108.7720
2211 12.04440 48.47520 94.45820 32.46820 28.94540 118.3580
2212 11.58440 73.70250 93.44620 42.49030 48.18750 121.6530
2213 12.54080 83.54120 92.33100 47.75430 58.04640 121.0080
2214 16.20430 29.22140 33.47260 6.552090 6.890160 13.98780
2215 23.82040 31.07640 35.72780 7.844570 8.000950 15.99170
2216 46.35420 25.13480 28.98980 10.43600 8.274680 12.56700
2217 56.79550 26.80320 38.07620 15.00320 11.09410 19.10300
2218 67.68700 29.24170 41.13180 19.79960 14.53230 22.88770
2219 89.54910 58.00990 48.77350 43.26000 38.68120 38.72520
2220 22.55080 44.70510 7.156510 9.127050 12.95720 8.203920
2221 32.09610 53.08520 74.55050 25.33730 25.73300 70.36550
2222 75.45870 75.24060 87.74810 57.13090 57.21450 111.1940
2223 82.76090 82.59390 95.28680 69.85720 70.70890 135.4080
2224 23.18280 11.84230 26.47350 4.552400 3.439050 9.212290
2225 35.70230 7.847100 53.98790 10.76250 6.619750 32.73440
2226 38.93520 93.28470 56.52340 42.97360 61.77840 52.60270
2227 9.923950 70.80370 18.31540 19.87760 32.46950 16.43330
2228 14.17910 84.57750 23.22990 28.42900 46.85160 22.08380
2229 15.45060 87.98530 36.19360 32.30630 51.88700 29.97900
2230 62.55840 89.57430 47.24220 46.42230 60.86190 42.88720
2231 89.13850 92.83140 72.84910 69.81900 77.30180 84.02430
2232 92.42720 93.11600 79.35690 75.06610 80.84770 97.98280
2233 10.94970 14.72200 20.40720 3.421400 3.027000 6.794090
2234 15.94960 15.26100 19.04840 3.584630 3.194070 6.404650
2235 12.68270 39.48760 16.63420 7.377280 10.32160 8.494560
2236 11.12490 57.66970 21.06720 14.25860 21.48190 13.57770
2237 41.73840 61.99270 23.88790 19.76540 26.88680 16.89340
2238 70.77760 64.00620 24.02460 31.03110 34.60010 20.13740
2239 83.02930 65.90470 52.23860 43.25730 42.87850 43.73310
2240 21.67490 16.54960 55.65650 9.595590 6.586440 34.27550
2241 38.77260 22.79770 60.54700 14.20670 10.00360 41.97770
2242 63.67710 22.82190 67.87100 25.27700 16.21000 56.50990
2243 22.55720 3.438790 14.44890 3.348920 2.372450 5.105940
2244 42.60120 18.31190 10.22100 7.530840 5.691130 5.884620
2245 55.16660 37.68480 22.64220 15.01560 13.84480 11.79580
2246 56.71150 43.82960 25.34780 17.50160 17.31050 14.17770
2247 64.43820 59.44030 40.40470 28.84090 30.68540 27.82350
2248 74.55410 64.00620 41.48290 35.26760 37.08670 31.10860
2249 13.47820 5.789310 5.762910 2.635700 2.116860 4.071860
2250 9.602310 4.065660 11.58580 2.483760 1.952940 4.361970
2251 14.97310 11.18730 9.859130 2.936210 2.509040 4.419750
2252 18.36940 10.55370 2.920580 3.108700 2.601000 4.283090
2253 29.08470 21.66900 5.100590 5.186710 4.831130 5.233580
2254 28.10110 24.83210 9.776220 5.438280 5.470050 5.655920
2255 37.74300 72.15320 32.92560 24.77680 35.77160 23.94890
2256 64.87650 72.42360 62.03620 40.61480 44.82230 56.92370
2257 81.70350 79.53680 68.88140 54.94880 58.47680 72.36220
2258 90.90280 85.87390 75.79070 67.32970 70.42040 88.50760
2259 52.06730 47.27800 44.76780 19.63570 19.84280 27.81970
2260 64.82970 52.50990 43.73360 26.71000 26.04050 29.03230
2261 72.81980 59.74290 50.35510 34.15500 34.09770 39.06560
2262 25.81940 21.39930 22.56930 5.276980 4.820590 8.093290
2263 27.45440 20.51510 33.49710 6.481500 5.361000 13.52090
2264 43.59620 20.59590 92.68850 28.91560 19.04080 110.9330
2265 30.13330 6.604250 69.05160 14.26700 8.592640 54.82770
2266 45.35330 8.893520 67.74120 17.09090 10.24500 54.11240
2267 48.93260 9.204610 93.19650 29.85660 18.58790 112.3860
2268 94.20520 80.35260 94.31510 75.67570 72.38910 133.7810
2269 16.93680 17.10850 12.99050 3.574170 3.365460 5.321380
2270 12.48510 43.45430 56.17740 14.50310 15.44920 37.76140
2271 4.333390 42.53200 63.40870 16.14700 16.05030 48.14040
2272 14.80370 34.29230 52.19840 11.11930 10.52720 31.38960
2273 22.26580 40.16100 65.39560 17.16930 15.64320 51.45920
2274 7.611120 25.47600 30.66210 5.413790 5.643280 12.05820
2275 8.947310 23.93590 33.11010 5.409370 5.335870 13.09700
2276 24.80700 29.13860 40.73400 8.342820 7.857330 19.41380
2277 33.92040 27.41200 62.26310 14.54080 11.05080 45.39610
2278 74.82500 26.83600 63.10550 28.97000 19.36460 50.40780
2279 87.28270 32.69690 66.49720 38.52850 26.31320 58.20270
2280 91.54370 57.02780 72.88590 51.16720 42.69670 74.18770
2281 94.32360 73.61420 77.43120 62.86840 59.08770 88.47740
2282 86.38410 78.61170 71.30230 58.15240 59.85460 76.70540
2283 85.53060 78.17870 76.88860 59.43460 60.41990 87.69170
2284 85.07400 89.84100 86.32680 70.79060 75.88000 112.1350
2285 4.859270 2.729900 8.204060 2.340970 1.836050 3.945250
2286 5.596780 7.202990 12.98830 2.638150 2.182580 4.819000
2287 6.707380 9.382810 28.62860 3.699700 2.838160 9.891240
2288 5.099830 4.843410 29.20050 3.583240 2.571130 10.00720
2289 62.37170 40.82850 28.60250 19.45740 17.29530 15.87060
2290 64.93500 50.10380 28.06410 23.93100 23.35110 17.61680
2291 73.20320 76.66840 26.83090 39.34820 47.31210 25.10700
2292 46.66520 45.21850 20.89300 14.34320 15.96060 11.96050
2293 58.24890 65.69960 28.87700 27.24580 33.27450 21.27760
2294 69.61090 65.25110 74.03390 42.11540 42.00370 76.29060
2295 79.97340 72.62360 83.88700 55.88410 54.46170 100.8380
2296 94.18420 81.23510 86.08820 71.34930 69.61840 110.5920
2297 8.422070 7.379610 18.66050 2.842130 2.290270 5.862390
2298 8.389400 5.787600 35.20340 4.335530 3.010380 13.69060
2299 13.27450 15.16750 70.90440 13.78240 8.751360 57.52760
2300 9.960190 24.93180 92.52620 24.90210 17.26340 107.9160
2301 31.75670 24.27490 92.73600 26.95520 18.55700 110.4330
2302 67.21450 33.71220 90.14000 36.93960 26.16800 106.3760
2303 92.88930 38.26860 92.52340 55.15630 38.40650 116.8410
2304 49.67570 20.42120 51.11010 14.41600 9.724170 30.84140
2305 75.78800 25.68290 51.26620 26.45070 17.76700 34.69000
2306 76.20560 16.44860 26.45950 21.61980 13.82990 13.71120
2307 67.00360 26.48340 5.754910 16.31020 12.11310 8.480900
2308 84.76860 47.97620 12.23520 32.25120 27.77120 14.64330
2309 94.49730 47.81380 20.79820 38.88140 31.72590 17.38950
2310 41.87730 9.925940 33.93370 8.416950 5.418640 13.98070
2311 47.15840 6.750140 40.99720 10.60120 6.485060 19.26960
2312 46.97790 47.63610 42.80370 17.80340 18.82900 25.45200
2313 47.50420 52.03650 48.56480 20.87210 22.65730 32.79190
2314 55.51160 51.98760 61.31550 26.57570 25.86210 49.47240
2315 38.69890 64.47590 62.88340 27.57610 32.84760 53.57190
2316 37.44400 63.78080 74.70970 31.10800 34.62110 74.05140
2317 68.28070 71.45630 75.19270 44.52660 46.91180 80.21560
2318 79.35830 72.77910 78.66070 53.54790 53.15430 89.31930
2319 59.82390 19.34860 17.97750 12.50620 8.784240 8.907430
2320 61.95790 19.51300 35.73070 14.98270 10.14840 17.36530
2321 74.45540 20.42890 40.86880 22.63320 14.78670 22.74150
2322 85.89440 32.06780 50.73090 33.04150 23.05180 35.56520
2323 88.30150 45.35060 56.42770 39.69540 31.10860 44.95590
2324 88.76600 75.45950 56.80030 53.28290 54.75250 53.11680
2325 93.10700 75.01720 60.89180 57.37540 56.92740 59.38230
2326 16.38230 21.79750 6.242480 3.824560 4.091640 4.851700
2327 14.69390 19.39940 38.91650 6.120880 4.902050 16.82730
2328 10.79020 23.42080 44.83580 7.397980 6.200550 22.21480
2329 12.36250 26.47430 52.74790 9.669610 7.971120 31.27630
2330 57.55460 34.76450 71.84510 25.45350 18.82230 63.34850
2331 91.32650 33.29820 80.47100 46.81860 31.52830 85.93650
2332 65.73510 25.89230 62.42370 23.39470 15.93200 47.97190
2333 82.53100 23.86420 64.27600 33.35590 21.50440 52.90960
2334 25.82200 47.56100 30.93890 11.83700 15.57280 15.85930
2335 27.10700 46.45990 36.56480 12.38600 15.45780 19.26150
2336 38.35250 65.74350 39.54830 22.70220 30.84640 26.78390
2337 6.468870 15.84390 4.309220 2.921880 2.892850 4.357960
2338 2.822920 12.31420 6.288980 2.674810 2.444630 4.181860
2339 3.729720 8.356170 10.39990 2.548390 2.169060 4.259240
2340 11.67250 9.170690 15.33410 2.881510 2.371670 5.319860
2341 16.32160 12.19570 14.03270 3.190590 2.713190 5.198330
2342 36.90750 43.32360 60.89600 18.30400 17.55350 45.65810
2343 35.86470 49.34810 77.10990 25.83720 24.45030 75.58480
2344 37.85310 70.00450 85.04910 38.80640 42.93840 98.57020
2345 56.72600 76.52470 93.07050 52.37280 55.39290 124.6550
2346 69.73210 78.31400 92.17770 57.75940 60.15830 123.0970
2347 51.77100 40.58040 51.63050 18.97020 16.90930 34.36890
2348 57.93450 68.11440 54.08340 32.66150 37.76610 43.83690
2349 63.35780 71.46210 66.09230 39.07260 43.63410 63.08400
2350 10.21190 34.88670 21.84000 6.630110 8.311900 9.165890
2351 8.633550 62.95400 33.17350 17.86160 26.50100 20.66700
2352 9.718390 82.99400 82.09020 41.83040 53.71070 93.77380
2353 10.33920 93.83650 93.44750 55.32890 70.49790 127.3500
2354 12.11930 21.06490 21.17510 4.072530 4.120290 7.381640
2355 16.86640 29.44440 18.79590 5.438800 6.432010 7.653510
2356 46.08150 31.47660 20.37790 10.65770 9.659110 9.635870
2357 90.31460 62.73230 18.13990 41.82260 40.25740 19.91690
2358 63.82250 38.40620 12.39950 17.49050 15.69020 10.34270
2359 71.23270 43.77880 11.65090 22.85980 20.66820 12.04780
2360 92.29040 46.45230 38.84500 39.01500 31.09730 26.72640
2361 45.87900 15.89340 54.66300 13.67240 8.753260 34.13510
2362 86.93550 15.24920 59.23210 33.49370 20.51150 44.86700
2363 94.27190 14.65470 81.23510 46.43870 28.21820 85.40680
2364 92.40510 6.450690 36.38530 32.16000 19.39370 20.88190
2365 91.84410 9.519170 57.04710 36.19940 21.74170 42.56240
2366 91.94200 22.81190 55.18750 36.86410 23.47970 40.56750
2367 91.67740 38.29030 64.80050 42.22620 30.10290 56.24580
2368 40.43400 15.57410 27.23130 7.672260 5.436260 10.34600
2369 41.48020 44.04660 25.62890 13.07340 14.87820 13.30250
2370 43.42510 70.56780 55.47280 29.52480 37.33940 45.22610
2371 42.53650 72.24080 73.42000 35.78390 42.12230 73.62430
2372 25.89900 46.77140 55.07470 15.92170 17.57040 37.35770
2373 24.93610 51.83140 66.52480 21.07760 22.74860 55.77590
2374 24.66750 60.81860 80.60470 30.08870 32.44770 84.87670
2375 24.34680 67.19890 92.61920 39.70830 42.53730 118.3780
2376 51.39500 68.02570 94.56880 47.08960 47.47530 126.1980
2377 8.375750 15.21780 62.27050 10.74150 7.011160 43.33990
2378 10.23680 29.09400 68.21050 14.47450 11.23820 53.88440
2379 9.886960 50.20100 70.92490 21.25240 21.94880 62.00730
2380 26.26580 72.80920 75.00470 34.05660 41.74960 77.14940
2381 36.83720 83.81520 85.13460 46.77730 57.05750 102.6100
2382 74.78520 94.13490 90.62580 70.17010 78.83740 124.4510
2383 21.92620 44.28760 23.00630 9.651480 13.14830 11.32620
2384 32.43900 92.01870 25.32270 35.57620 56.59480 25.47240
2385 44.89980 93.27140 27.56850 39.31600 59.70690 27.54420
2386 44.87590 93.28680 83.49120 54.13160 68.48040 101.4410
2387 22.63010 45.01170 49.34550 14.34430 15.75280 30.85300
2388 37.93630 56.36080 67.45240 25.34860 27.28890 59.20320
2389 47.01710 63.46730 67.86650 30.87230 34.13890 62.25890
2390 34.39090 45.68260 49.82530 15.82040 17.07870 31.91580
2391 45.78290 47.85960 66.00480 23.56870 22.39890 54.97280
2392 53.77660 47.63490 82.10810 31.92760 27.13850 87.24040
2393 3.814390 12.16760 22.29420 3.262250 2.751910 7.175320
2394 12.20610 2.473660 31.33770 3.893220 2.646850 11.18620
2395 16.06970 6.868220 34.31750 4.548490 3.156480 13.06340
2396 18.75830 4.452710 39.03040 5.312140 3.489150 16.32740
2397 41.67140 30.96120 78.56920 22.73120 16.54570 76.11990
2398 49.95150 59.10420 81.17850 34.82260 34.32890 86.89440
2399 32.92920 38.80020 50.57920 13.71490 13.44530 31.45730
2400 38.23190 38.07370 52.24650 14.75820 13.80040 32.98560
2401 47.01420 45.72680 56.10450 20.27550 19.68300 39.95910
2402 93.37990 44.83470 80.91540 51.35370 37.75990 88.61490
2403 64.41300 9.936480 31.21420 14.74870 9.217130 14.11240
2404 65.35170 13.68800 39.85470 16.70970 10.58750 20.55350
2405 73.08470 15.13700 47.15710 22.62690 14.10340 28.60740
2406 76.53730 48.87650 91.26360 47.50150 37.69490 114.0650
2407 9.921640 49.61840 35.43250 12.48690 16.80920 18.83000
2408 8.918370 51.73070 91.42610 31.58400 29.46970 109.9760
2409 9.147350 67.26380 95.39550 40.52190 43.53120 126.4190
2410 52.97160 91.90690 92.85320 60.80540 71.92500 127.2330
2411 75.78650 92.32230 93.83530 71.92430 79.19560 133.7930
2412 44.03620 56.21820 61.28160 24.60300 26.62210 49.49110
2413 64.05410 57.75550 69.03430 33.74440 32.84040 64.00260
2414 31.86580 26.42670 28.74450 7.381400 6.828410 11.61570
2415 61.80250 34.76510 26.86930 17.53190 14.30940 13.72980
2416 70.63730 35.44680 32.59970 21.61750 17.25830 18.11510
2417 70.01750 80.12150 73.36840 49.97390 56.10700 78.76970
2418 7.587210 20.51030 10.27130 3.409650 3.715490 4.869610
2419 10.47000 41.49290 8.199280 7.478020 10.94930 7.419540
2420 13.74490 94.14980 16.61210 34.57190 57.88510 22.70720
2421 12.21300 94.64240 65.03920 43.14020 63.10760 64.22570
2422 14.97020 61.48700 46.64260 19.00310 26.45600 31.38330
2423 11.93550 65.06190 69.57950 26.65270 32.75310 63.33910
2424 5.180940 63.68890 62.28670 23.72500 30.49920 51.33460
2425 16.95960 70.99520 85.41790 36.69820 42.54380 98.29650
2426 18.52140 92.21350 87.76310 51.43830 66.64720 110.9910
2427 17.72740 35.31100 19.98620 6.769740 8.688560 8.819940
2428 37.99730 66.59740 20.03410 20.80860 30.10440 16.48680
2429 77.17760 90.31830 22.74170 49.97060 63.67050 28.07460
2430 90.85310 95.53630 28.10820 62.64830 75.42180 32.98350
2431 22.00870 21.65170 5.128100 4.288490 4.336930 4.985920
2432 27.40630 32.33840 87.21860 24.44770 18.28850 95.50780
2433 45.58030 32.80440 87.67090 28.40880 20.61350 98.21060
2434 60.87130 41.59800 91.33370 37.79960 28.82820 110.5560
2435 92.76680 56.16530 91.57390 60.64200 48.69490 118.2250
2436 33.06100 13.15660 21.41110 5.553030 4.077000 7.526820
2437 90.74400 20.22740 21.71220 30.46690 19.52780 13.48890
2438 91.07800 76.07910 20.30930 49.29880 52.67800 24.24160
2439 91.67290 84.82560 43.88910 58.05880 64.32970 41.45220
2440 41.90840 32.72050 29.29680 10.68200 10.03010 13.38600
2441 41.54140 32.49750 36.14050 11.37880 10.40600 17.36350
2442 62.27370 8.113960 16.54070 12.64160 7.981960 8.166980
2443 61.94170 6.132900 25.07880 12.95780 8.038080 10.88510
2444 77.09210 6.720620 29.46480 21.65410 13.19580 14.94350
2445 78.59180 84.24110 37.27450 48.42340 58.06500 34.37960
2446 78.52820 92.93250 44.42870 55.48600 68.91280 42.78470
2447 86.83160 94.42200 44.83280 61.34520 73.44840 44.36890
2448 93.10980 59.91350 24.41720 43.09620 39.65510 21.43650
2449 92.49540 57.65970 31.48650 42.23030 37.99290 24.31530
2450 96.03080 57.47820 46.15930 47.09440 40.81480 36.56120
2451 79.10430 48.14650 36.67010 30.95000 27.10700 24.17400
2452 82.34800 62.88870 35.18660 38.15660 38.08900 27.09370
2453 33.09810 38.00260 14.40820 8.967150 10.60230 8.339500
2454 34.27670 75.25620 9.547580 24.10790 37.36400 16.63760
2455 76.78110 74.31290 19.09910 39.53490 45.96660 22.05290
2456 96.16410 84.91970 16.40310 58.33280 64.46950 26.43840
2457 94.22140 83.22120 31.37090 56.93900 62.52760 31.74560
2458 40.98490 28.62300 13.63450 8.573260 7.937000 7.284890
2459 42.30720 28.65990 6.779710 8.779850 8.048430 6.609260
2460 44.84650 38.20170 4.902320 11.31390 11.87500 8.075810
2461 44.76620 47.62290 11.62470 14.09150 16.73330 10.18960
2462 52.16580 49.91270 9.649860 16.98660 19.31020 11.02020
2463 60.38190 95.67090 45.12410 48.85820 66.82720 42.05300
2464 26.09370 57.62020 45.70000 17.98890 23.75470 29.48360
2465 30.47060 67.14210 58.01170 25.82070 33.25830 46.68260
2466 69.12930 70.42530 60.84530 39.45750 43.19970 55.12790
2467 43.18630 27.80390 23.02230 9.479140 8.306370 9.784750
2468 93.04370 29.94590 24.25360 33.83050 23.16140 15.59400
2469 92.90240 29.13420 43.18760 35.70720 23.95600 27.67470
2470 40.77730 21.56250 17.33730 7.702280 6.218020 7.339050
2471 44.34540 18.64780 26.39400 8.820270 6.420680 10.58690
2472 51.57040 16.39550 29.15980 10.92810 7.320950 12.25190
2473 64.92280 20.23780 27.85350 15.66540 10.69590 13.15140
2474 84.47100 18.17920 91.46260 45.59920 28.59060 111.6420
2475 54.11310 10.24390 63.20170 18.18400 10.87470 46.98980
2476 54.91430 27.52010 75.13360 24.54430 16.76880 69.70800
2477 26.22340 8.193630 18.99020 4.219830 3.064830 6.433540
2478 26.49350 8.269270 23.22970 4.489490 3.207000 7.824450
2479 30.50230 5.243580 21.20170 4.850270 3.276030 7.203330
2480 41.28660 4.626440 25.78060 7.220540 4.578220 9.448630
2481 53.38190 8.754680 39.58050 12.25500 7.503320 18.86200
2482 57.79990 8.848350 71.59540 22.27570 13.17510 61.55830
2483 78.83010 9.700570 83.60810 37.56020 22.66910 90.52390
2484 82.57410 7.212200 93.09290 44.74870 27.49430 116.2090
2485 83.59230 61.21930 92.47260 56.96740 49.17470 120.7570
2486 39.78690 16.04550 31.77820 8.074830 5.728260 12.87700
2487 39.81840 15.74510 39.43250 9.026310 6.194260 17.90970
2488 38.57710 17.82860 70.68190 16.91450 10.88440 58.48860
2489 21.29900 20.40750 34.96450 5.954070 5.065050 14.33770
2490 18.19930 45.96420 85.54030 26.01070 23.52570 92.17700
2491 22.85530 54.69280 88.37260 31.45480 30.71140 103.1160
2492 34.56300 62.56270 94.82770 40.20810 40.33490 123.5140
2493 43.10760 70.30350 93.70040 44.95220 47.15100 122.4810
2494 43.52810 78.67850 93.10490 49.89330 55.85070 124.3310
2495 17.78780 22.74980 49.58410 8.834960 6.877120 27.52280
2496 21.48310 24.71080 61.43450 12.57380 9.208750 43.44210
2497 30.17240 38.30660 78.82130 22.22680 18.38510 76.48720
2498 8.563900 4.551820 42.61780 5.572410 3.560080 19.34400
2499 10.94370 7.130310 59.53010 9.653990 5.908150 38.93020
2500 8.020390 8.992490 85.17520 19.45640 11.95580 88.01440
2501 27.63510 39.01390 92.56970 28.85850 23.07130 110.5720
2502 38.82560 55.89020 91.32410 36.06240 34.10530 111.8260
2503 53.39170 78.85540 91.04950 51.39870 56.38370 119.1890
2504 33.89520 45.66390 39.91170 13.68120 15.88820 21.93880
2505 46.99700 47.62410 38.52760 17.10890 18.44960 21.94700
2506 51.38890 59.68100 38.69250 23.08140 27.50920 25.39610
2507 54.82680 75.43580 41.95870 32.77130 42.53450 32.57990
2508 67.58700 76.73930 43.91710 38.30470 46.67500 36.26750
2509 64.66660 83.36290 43.02570 42.33040 53.50450 37.15640
2510 94.06880 93.03760 50.05850 66.62170 75.80550 50.93900
2511 31.15970 7.841630 4.764830 4.499240 3.234300 4.635780
2512 29.53580 4.236930 8.337000 3.944130 2.782520 4.463230
2513 48.96850 18.53080 6.407500 8.738870 6.504490 6.128200
2514 68.63610 21.28480 8.738260 16.46040 11.38520 8.213790
2515 79.31880 18.77030 7.155490 22.75980 14.83400 9.416710
2516 79.49740 42.47280 2.562160 27.27660 22.80150 12.38710
2517 80.40430 54.00040 8.890510 31.64890 30.05820 14.95060
2518 82.68300 61.86280 8.422100 36.15040 36.48020 17.09750
2519 93.85850 65.96370 8.734690 45.31110 44.09120 19.21860
2520 94.07610 94.17820 8.732990 62.57890 74.23950 27.45450
2521 8.842970 30.77480 46.22060 8.802580 8.369450 24.56610
2522 8.967080 33.94720 46.09070 9.403130 9.529710 24.59070
2523 5.185530 47.22090 46.14110 13.27270 16.13510 27.38490
2524 11.02730 71.17470 47.23730 23.75980 34.97780 34.43430
2525 9.792020 87.07920 48.70380 33.55170 51.68140 40.72620
2526 55.01080 86.94800 63.73170 45.32970 58.08990 62.98130
2527 62.04730 93.45890 65.24320 53.24890 67.50390 67.96960
END_DATA
CAL    

ORIGINATOR "Argyll dispread"
CREATED "Thu May 29 19:40:00 2014"
KEYWORD "DEVICE_CLASS"
DEVICE_CLASS "DISPLAY"
DESCRIPTOR "Argyll Device Calibration State"

BEGIN_ARGYLL_DISPCAL_ARGS
-v2 -qh -m -t -g2.2 -f1.0 -k0 -A4.0 -d1 -c1 -yl -P0.5,0.9,1.5 -Ibw
END_ARGYLL_DISPCAL_ARGS

KEYWORD "COLOR_REP"
COLOR_REP "RGB"

KEYWORD "RGB_I"
NUMBER_OF_FIELDS 4
BEGIN_DATA_FORMAT
RGB_I RGB_R RGB_G RGB_B
END_DATA_FORMAT

NUMBER_OF_SETS 256
BEGIN_DATA
0.000000000 0.000000000 0.008872910 0.000000000
0.003921570 0.000000000 0.010055800 0.000000000
0.007843140 0.000000000 0.011267700 0.000000000
0.011764700 0.000000000 0.012509700 0.000000000
0.015686300 0.000000000 0.013782900 0.000000000
0.019607800 0.000000000 0.015088500 0.000000000
0.023529400 0.000000000 0.016427800 0.000000000
0.027451000 0.000283639 0.017802100 0.000000000
0.031372500 0.001051900 0.019212800 0.000000000
0.035294100 0.001846140 0.020661300 0.000668019
0.039215700 0.002667700 0.022149300 0.001500770
0.043137300 0.003518010 0.023678200 0.002354210
0.047058800 0.004398620 0.025249900 0.003229110
0.050980400 0.005311160 0.026866100 0.004126280
0.054902000 0.006257410 0.028528900 0.005046610
0.058823500 0.007239270 0.030240100 0.005990980
0.062745100 0.008258800 0.032002000 0.006960360
0.066666700 0.009318190 0.033816900 0.007955760
0.070588200 0.010419800 0.035687200 0.008978220
0.074509800 0.011566300 0.037615400 0.010028900
0.078431400 0.012760400 0.039604300 0.011108900
0.082352900 0.014005200 0.041656800 0.012219600
0.086274500 0.015303900 0.043776500 0.013362200
0.090196100 0.016660200 0.045966900 0.014538200
0.094117600 0.018077900 0.048231900 0.015749000
0.098039200 0.019561300 0.050574400 0.016996100
0.101961000 0.021115100 0.052996900 0.018281400
0.105882000 0.022744500 0.055502600 0.019606500
0.109804000 0.024455000 0.058093000 0.020973300
0.113725000 0.026252900 0.060770400 0.022383800
0.117647000 0.028145100 0.063533700 0.023840100
0.121569000 0.030139600 0.066384300 0.025344600
0.125490000 0.032242900 0.069325800 0.026899700
0.129412000 0.034457400 0.072357600 0.028507800
0.133333000 0.036786500 0.075474300 0.030171700
0.137255000 0.039230500 0.078675300 0.031892400
0.141176000 0.041797000 0.081961700 0.033672000
0.145098000 0.044477400 0.085322500 0.035511800
0.149020000 0.047275600 0.088751700 0.037413800
0.152941000 0.050190200 0.092245100 0.039380400
0.156863000 0.053201200 0.095798800 0.041412700
0.160784000 0.056311800 0.099403300 0.043511600
0.164706000 0.059525300 0.103061000 0.045677700
0.168627000 0.062824600 0.106768000 0.047910200
0.172549000 0.066186200 0.110527000 0.050208000
0.176471000 0.069620100 0.114340000 0.052570900
0.180392000 0.073133500 0.118207000 0.054997900
0.184314000 0.076729400 0.122132000 0.057486100
0.188235000 0.080390000 0.126107000 0.060033600
0.192157000 0.084100900 0.130134000 0.062638300
0.196078000 0.087863200 0.134215000 0.065298900
0.200000000 0.091709700 0.138355000 0.068018000
0.203922000 0.095633800 0.142527000 0.070792400
0.207843000 0.099650100 0.146725000 0.073623300
0.211765000 0.103751000 0.150942000 0.076506400
0.215686000 0.107942000 0.155203000 0.079442800
0.219608000 0.112215000 0.159494000 0.082424400
0.223529000 0.116522000 0.163804000 0.085444900
0.227451000 0.120832000 0.168148000 0.088508200
0.231373000 0.125188000 0.172523000 0.091604100
0.235294000 0.129606000 0.176944000 0.094732500
0.239216000 0.134035000 0.181424000 0.097901200
0.243137000 0.138448000 0.185929000 0.101106000
0.247059000 0.142868000 0.190451000 0.104345000
0.250980000 0.147312000 0.195010000 0.107621000
0.254902000 0.151727000 0.199602000 0.110934000
0.258824000 0.156190000 0.204212000 0.114270000
0.262745000 0.160671000 0.208847000 0.117635000
0.266667000 0.165185000 0.213526000 0.121030000
0.270588000 0.169759000 0.218226000 0.124463000
0.274510000 0.174370000 0.222940000 0.127923000
0.278431000 0.178999000 0.227646000 0.131406000
0.282353000 0.183682000 0.232342000 0.134912000
0.286275000 0.188417000 0.237030000 0.138442000
0.290196000 0.193119000 0.241693000 0.142013000
0.294118000 0.197777000 0.246324000 0.145606000
0.298039000 0.202422000 0.250932000 0.149200000
0.301961000 0.207033000 0.255522000 0.152808000
0.305882000 0.211639000 0.260115000 0.156432000
0.309804000 0.216284000 0.264724000 0.160068000
0.313725000 0.220970000 0.269320000 0.163731000
0.317647000 0.225691000 0.273870000 0.167433000
0.321569000 0.230393000 0.278364000 0.171157000
0.325490000 0.235034000 0.282798000 0.174892000
0.329412000 0.239635000 0.287170000 0.178634000
0.333333000 0.244202000 0.291477000 0.182410000
0.337255000 0.248767000 0.295758000 0.186214000
0.341176000 0.253339000 0.300039000 0.190040000
0.345098000 0.257903000 0.304315000 0.193886000
0.349020000 0.262440000 0.308578000 0.197768000
0.352941000 0.266879000 0.312824000 0.201689000
0.356863000 0.271195000 0.317061000 0.205613000
0.360784000 0.275419000 0.321300000 0.209533000
0.364706000 0.279579000 0.325526000 0.213451000
0.368627000 0.283710000 0.329739000 0.217358000
0.372549000 0.287840000 0.333939000 0.221282000
0.376471000 0.291978000 0.338134000 0.225231000
0.380392000 0.296128000 0.342367000 0.229195000
0.384314000 0.300281000 0.346649000 0.233166000
0.388235000 0.304410000 0.350976000 0.237153000
0.392157000 0.308553000 0.355341000 0.241154000
0.396078000 0.312713000 0.359734000 0.245172000
0.400000000 0.316872000 0.364156000 0.249212000
0.403922000 0.321035000 0.368585000 0.253246000
0.407843000 0.325191000 0.373021000 0.257271000
0.411765000 0.329359000 0.377480000 0.261271000
0.415686000 0.333550000 0.381953000 0.265236000
0.419608000 0.337726000 0.386422000 0.269169000
0.423529000 0.341882000 0.390876000 0.273062000
0.427451000 0.346024000 0.395302000 0.276896000
0.431373000 0.350160000 0.399689000 0.280663000
0.435294000 0.354286000 0.404045000 0.284404000
0.439216000 0.358410000 0.408409000 0.288156000
0.443137000 0.362525000 0.412811000 0.291916000
0.447059000 0.366670000 0.417254000 0.295673000
0.450980000 0.370809000 0.421725000 0.299430000
0.454902000 0.374934000 0.426208000 0.303178000
0.458824000 0.379075000 0.430693000 0.306925000
0.462745000 0.383187000 0.435185000 0.310678000
0.466667000 0.387236000 0.439706000 0.314428000
0.470588000 0.391212000 0.444243000 0.318177000
0.474510000 0.395090000 0.448777000 0.321921000
0.478431000 0.398915000 0.453302000 0.325659000
0.482353000 0.402789000 0.457819000 0.329405000
0.486275000 0.406729000 0.462315000 0.333185000
0.490196000 0.410720000 0.466782000 0.336985000
0.494118000 0.414747000 0.471235000 0.340796000
0.498039000 0.418801000 0.475680000 0.344595000
0.501961000 0.422888000 0.480118000 0.348380000
0.505882000 0.427019000 0.484546000 0.352149000
0.509804000 0.431214000 0.488966000 0.355908000
0.513725000 0.435460000 0.493387000 0.359646000
0.517647000 0.439723000 0.497810000 0.363386000
0.521569000 0.443969000 0.502241000 0.367141000
0.525490000 0.448204000 0.506737000 0.370902000
0.529412000 0.452392000 0.511283000 0.374671000
0.533333000 0.456544000 0.515861000 0.378438000
0.537255000 0.460690000 0.520472000 0.382207000
0.541176000 0.464916000 0.525115000 0.385966000
0.545098000 0.469223000 0.529779000 0.389702000
0.549020000 0.473595000 0.534464000 0.393409000
0.552941000 0.477966000 0.539171000 0.397128000
0.556863000 0.482318000 0.543889000 0.400906000
0.560784000 0.486691000 0.548595000 0.404756000
0.564706000 0.491083000 0.553293000 0.408674000
0.568627000 0.495527000 0.557997000 0.412644000
0.572549000 0.500057000 0.562697000 0.416652000
0.576471000 0.504680000 0.567384000 0.420678000
0.580392000 0.509398000 0.572042000 0.424724000
0.584314000 0.514214000 0.576677000 0.428793000
0.588235000 0.519111000 0.581346000 0.432863000
0.592157000 0.524047000 0.586057000 0.436933000
0.596078000 0.529093000 0.590793000 0.440986000
0.600000000 0.534317000 0.595530000 0.445045000
0.603922000 0.539672000 0.600266000 0.449126000
0.607843000 0.545128000 0.604992000 0.453214000
0.611765000 0.550789000 0.609714000 0.457288000
0.615686000 0.556677000 0.614410000 0.461349000
0.619608000 0.562754000 0.619079000 0.465412000
0.623529000 0.568911000 0.623741000 0.469468000
0.627451000 0.575173000 0.628410000 0.473526000
0.631373000 0.581554000 0.633071000 0.477583000
0.635294000 0.587872000 0.637719000 0.481639000
0.639216000 0.593983000 0.642367000 0.485699000
0.643137000 0.599807000 0.647014000 0.489764000
0.647059000 0.605330000 0.651639000 0.493849000
0.650980000 0.610527000 0.656219000 0.497972000
0.654902000 0.615451000 0.660740000 0.502160000
0.658824000 0.620244000 0.665201000 0.506389000
0.662745000 0.625019000 0.669612000 0.510653000
0.666667000 0.629832000 0.674023000 0.514954000
0.670588000 0.634766000 0.678474000 0.519288000
0.674510000 0.639917000 0.682965000 0.523652000
0.678431000 0.645358000 0.687489000 0.528049000
0.682353000 0.651117000 0.692023000 0.532472000
0.686275000 0.657108000 0.696544000 0.536920000
0.690196000 0.663245000 0.701030000 0.541374000
0.694118000 0.669661000 0.705476000 0.545845000
0.698039000 0.676319000 0.709880000 0.550368000
0.701961000 0.683184000 0.714254000 0.554931000
0.705882000 0.690001000 0.718603000 0.559517000
0.709804000 0.696555000 0.722940000 0.564116000
0.713725000 0.702831000 0.727263000 0.568710000
0.717647000 0.708852000 0.731578000 0.573366000
0.721569000 0.714675000 0.735906000 0.578135000
0.725490000 0.720357000 0.740247000 0.582993000
0.729412000 0.725895000 0.744607000 0.587897000
0.733333000 0.731328000 0.748985000 0.592846000
0.737255000 0.736657000 0.753381000 0.597841000
0.741176000 0.741911000 0.757779000 0.602859000
0.745098000 0.747072000 0.762165000 0.607860000
0.749020000 0.752156000 0.766538000 0.612835000
0.752941000 0.757186000 0.770891000 0.617798000
0.756863000 0.762120000 0.775236000 0.622768000
0.760784000 0.766898000 0.779579000 0.627747000
0.764706000 0.771573000 0.783910000 0.632725000
0.768627000 0.776216000 0.788223000 0.637711000
0.772549000 0.780774000 0.792497000 0.642677000
0.776471000 0.785224000 0.796715000 0.647603000
0.780392000 0.789597000 0.800876000 0.652450000
0.784314000 0.793854000 0.805016000 0.657186000
0.788235000 0.797969000 0.809166000 0.661804000
0.792157000 0.802014000 0.813326000 0.666332000
0.796078000 0.806107000 0.817488000 0.670933000
0.800000000 0.810241000 0.821635000 0.675659000
0.803922000 0.814398000 0.825758000 0.680513000
0.807843000 0.818521000 0.829859000 0.685468000
0.811765000 0.822618000 0.833945000 0.690492000
0.815686000 0.826687000 0.838007000 0.695563000
0.819608000 0.830722000 0.842044000 0.700675000
0.823529000 0.834733000 0.846057000 0.705826000
0.827451000 0.838724000 0.850049000 0.711033000
0.831373000 0.842691000 0.854001000 0.716296000
0.835294000 0.846667000 0.857908000 0.721586000
0.839216000 0.850635000 0.861798000 0.726896000
0.843137000 0.854569000 0.865697000 0.732270000
0.847059000 0.858490000 0.869598000 0.737710000
0.850980000 0.862443000 0.873495000 0.743220000
0.854902000 0.866395000 0.877384000 0.748802000
0.858824000 0.870301000 0.881250000 0.754445000
0.862745000 0.874172000 0.885095000 0.760097000
0.866667000 0.878035000 0.888913000 0.765736000
0.870588000 0.881909000 0.892707000 0.771356000
0.874510000 0.885802000 0.896479000 0.776987000
0.878431000 0.889693000 0.900222000 0.782601000
0.882353000 0.893589000 0.903931000 0.788183000
0.886275000 0.897463000 0.907610000 0.793701000
0.890196000 0.901289000 0.911259000 0.799131000
0.894118000 0.905062000 0.914896000 0.804578000
0.898039000 0.908786000 0.918521000 0.810169000
0.901961000 0.912491000 0.922120000 0.815874000
0.905882000 0.916191000 0.925689000 0.821658000
0.909804000 0.919852000 0.929243000 0.827484000
0.913725000 0.923446000 0.932773000 0.833369000
0.917647000 0.927023000 0.936269000 0.839335000
0.921569000 0.930617000 0.939726000 0.845361000
0.925490000 0.934224000 0.943135000 0.851441000
0.929412000 0.937836000 0.946499000 0.857524000
0.933333000 0.941420000 0.949822000 0.863740000
0.937255000 0.944960000 0.953108000 0.870134000
0.941176000 0.948471000 0.956352000 0.876690000
0.945098000 0.951990000 0.959550000 0.883404000
0.949020000 0.955505000 0.962703000 0.890245000
0.952941000 0.958991000 0.965811000 0.897288000
0.956863000 0.962469000 0.968874000 0.904531000
0.960784000 0.965934000 0.971896000 0.911973000
0.964706000 0.969380000 0.974877000 0.919709000
0.968627000 0.972817000 0.977818000 0.927664000
0.972549000 0.976245000 0.980720000 0.935869000
0.976471000 0.979664000 0.983583000 0.944298000
0.980392000 0.983075000 0.986409000 0.952963000
0.984314000 0.986477000 0.989198000 0.961861000
0.988235000 0.989871000 0.991951000 0.971003000
0.992157000 0.993256000 0.994669000 0.980398000
0.996078000 0.996632000 0.997351000 0.990060000
1.000000000 1.000000000 1.000000000 1.000000000
END_DATA